Mon Jan 13 20:00:39 2020

Number of Points = 3018
Depth (nm)	Load (µN)	Time (s)	Depth (V)	Load (V)
0.414282	0.139434	0.000000	0.000074	0.519389

0.787063	0.010953	0.005005	0.000006	0.519402
0.660685	0.049211	0.010010	0.000028	0.519388
0.771515	-0.066551	0.015014	0.000008	0.519158
0.529194	-0.014612	0.020019	0.000051	0.519061
0.870576	-0.130816	0.025024	-0.000012	0.519078
0.618874	-0.048665	0.030029	0.000033	0.519062
0.747663	-0.091383	0.035034	0.000009	0.519074
0.707318	-0.138285	0.040038	0.000016	0.518893
0.890277	-0.241609	0.045043	-0.000018	0.518779
0.626480	-0.155654	0.050048	0.000029	0.518762
0.705967	-0.262355	0.055053	0.000014	0.518526
0.618943	-0.261334	0.060058	0.000029	0.518440
0.668034	-0.321589	0.065062	0.000019	0.518313
0.586514	-0.351798	0.070067	0.000033	0.518138
0.824771	-0.490829	0.075072	-0.000011	0.517974
0.631373	-0.472990	0.080077	0.000024	0.517825
0.717268	-0.573787	0.085082	0.000007	0.517614
0.575354	-0.581079	0.090086	0.000032	0.517443
0.611280	-0.655038	0.095091	0.000025	0.517260
0.424797	-0.689273	0.100096	0.000058	0.516959
0.578176	-0.808377	0.105101	0.000030	0.516764
0.608754	-0.898300	0.110106	0.000023	0.516526
0.681883	-1.007259	0.115110	0.000009	0.516276
0.165393	-0.921210	0.120115	0.000102	0.515986
0.340980	-1.067854	0.125120	0.000069	0.515731
0.321104	-1.154270	0.130125	0.000072	0.515449
0.391380	-1.267267	0.135130	0.000059	0.515183
0.314009	-1.346401	0.140134	0.000072	0.514860
0.368817	-1.465457	0.145139	0.000062	0.514558
0.342076	-1.567445	0.150144	0.000066	0.514220
0.429272	-1.700545	0.155149	0.000049	0.513910
0.327399	-1.788113	0.160154	0.000067	0.513534
0.308934	-1.896446	0.165158	0.000070	0.513185
0.394616	-2.052404	0.170163	0.000053	0.512802
0.362362	-2.150923	0.175168	0.000058	0.512467
0.317414	-2.266436	0.180173	0.000066	0.512066
0.426331	-2.445680	0.185178	0.000045	0.511635
0.185988	-2.502481	0.190182	0.000088	0.511202
0.306260	-2.670615	0.195187	0.000066	0.510818
0.043211	-2.739103	0.200192	0.000112	0.510323
0.169178	-2.913915	0.205197	0.000089	0.509923
-0.010300	-3.005714	0.210202	0.000121	0.509446
-0.102193	-3.112670	0.215206	0.000137	0.509018
-0.123486	-3.255237	0.220211	0.000140	0.508556
-0.183417	-3.382145	0.225216	0.000150	0.508100
-0.302672	-3.471561	0.230221	0.000171	0.507695
-0.251016	-3.645160	0.235226	0.000161	0.507216
-0.492809	-3.718515	0.240230	0.000204	0.506726
-0.584204	-3.838077	0.245235	0.000219	0.506256
-0.798455	-3.915396	0.250240	0.000257	0.505783
-1.570855	-3.790159	0.255245	0.000396	0.505328
-2.656549	-3.522720	0.260250	0.000592	0.504972
-2.736853	-3.597655	0.265254	0.000605	0.504653
-3.202692	-3.530065	0.270259	0.000689	0.504354
-3.566540	-3.482516	0.275264	0.000754	0.504106
-3.719033	-3.508204	0.280269	0.000781	0.503861
-3.738566	-3.591370	0.285274	0.000784	0.503583
-4.207585	-3.520028	0.290278	0.000868	0.503292
-4.317959	-3.548429	0.295283	0.000887	0.503085
-4.683203	-3.471340	0.300288	0.000952	0.502927
-4.810044	-3.502088	0.305293	0.000974	0.502694
-4.878371	-3.547847	0.310298	0.000986	0.502479
-5.128288	-3.510069	0.315302	0.001030	0.502325
-5.563692	-3.450710	0.320307	0.001108	0.502033
-5.325479	-3.575063	0.325312	0.001065	0.501911
-5.750395	-3.489126	0.330317	0.001141	0.501714
-5.720570	-3.569792	0.335322	0.001134	0.501497
-6.084867	-3.471158	0.340326	0.001200	0.501408
-6.314949	-3.486595	0.345331	0.001240	0.501108
-6.364269	-3.477809	0.350336	0.001249	0.501085
-6.797178	-3.420601	0.355341	0.001326	0.500789
-6.555780	-3.509454	0.360346	0.001282	0.500781
-6.903722	-3.484028	0.365350	0.001344	0.500479
-6.996286	-3.456493	0.370355	0.001360	0.500467
-7.306077	-3.436591	0.375360	0.001415	0.500189
-7.232910	-3.472140	0.380365	0.001401	0.500163
-7.437832	-3.479836	0.385370	0.001437	0.499915
-7.470279	-3.496210	0.390374	0.001443	0.499831
-7.740879	-3.465610	0.395379	0.001491	0.499631
-7.924041	-3.437187	0.400384	0.001523	0.499521
-7.972985	-3.466876	0.405389	0.001531	0.499377
-8.240922	-3.429222	0.410394	0.001579	0.499201
-8.176700	-3.464127	0.415398	0.001567	0.499167
-8.422311	-3.461703	0.420403	0.001610	0.498905
-8.390919	-3.468113	0.425408	0.001604	0.498924
-8.724480	-3.456830	0.430413	0.001663	0.498592
-8.782554	-3.436652	0.435418	0.001673	0.498595
-8.941070	-3.447358	0.440422	0.001701	0.498388
-9.105411	-3.420020	0.445427	0.001730	0.498296
-9.117982	-3.450432	0.450432	0.001732	0.498190
-9.466755	-3.394040	0.455437	0.001794	0.497983
-9.414604	-3.416541	0.460442	0.001784	0.497974
-9.504132	-3.459333	0.465446	0.001799	0.497743
-9.528966	-3.463721	0.470451	0.001803	0.497706
-9.895208	-3.411552	0.475456	0.001868	0.497466
-10.136976	-3.353514	0.480461	0.001911	0.497384
-9.993994	-3.432576	0.485466	0.001885	0.497297
-10.261796	-3.411379	0.490470	0.001932	0.497069
-10.094762	-3.473908	0.495475	0.001902	0.497062
-10.659014	-3.375714	0.500480	0.002003	0.496746
-10.504411	-3.429375	0.505485	0.001974	0.496753
-10.640669	-3.444263	0.510490	0.001998	0.496557
-10.794558	-3.423685	0.515494	0.002025	0.496454
-11.025805	-3.380912	0.520499	0.002066	0.496335
-11.152915	-3.404334	0.525504	0.002088	0.496122
-11.081179	-3.432837	0.530509	0.002075	0.496117
-11.317030	-3.442549	0.535514	0.002117	0.495825
-11.521574	-3.376870	0.540518	0.002153	0.495809
-11.481818	-3.452725	0.545523	0.002145	0.495616
-11.808899	-3.374182	0.550528	0.002203	0.495504
-11.748965	-3.424550	0.555533	0.002192	0.495415
-12.091934	-3.375487	0.560538	0.002253	0.495190
-11.911463	-3.440841	0.565542	0.002220	0.495189
-12.395147	-3.375195	0.570547	0.002306	0.494859
-12.300880	-3.406277	0.575552	0.002289	0.494870
-12.622327	-3.340260	0.580557	0.002346	0.494723
-12.746233	-3.348679	0.585562	0.002368	0.494561
-12.531972	-3.437771	0.590566	0.002328	0.494523
-12.896937	-3.397495	0.595571	0.002393	0.494244
-12.924012	-3.393925	0.600576	0.002397	0.494230
-13.263583	-3.346386	0.605581	0.002458	0.494003
-13.348046	-3.339547	0.610586	0.002473	0.493934
-13.175613	-3.430073	0.615590	0.002441	0.493844
-13.647402	-3.339530	0.620595	0.002525	0.493606
-13.371783	-3.436006	0.625600	0.002475	0.493612
-13.705069	-3.415267	0.630605	0.002534	0.493307
-13.755464	-3.394106	0.635610	0.002543	0.493322
-14.000582	-3.385123	0.640614	0.002586	0.493078
-14.027399	-3.401024	0.645619	0.002590	0.493002
-13.976400	-3.463267	0.650624	0.002580	0.492864
-14.275359	-3.395564	0.655629	0.002634	0.492748
-14.439615	-3.378309	0.660634	0.002663	0.492622
-14.756507	-3.334192	0.665638	0.002719	0.492409
-14.501135	-3.432613	0.670643	0.002672	0.492387
-14.845247	-3.400773	0.675648	0.002734	0.492104
-14.863042	-3.400102	0.680653	0.002736	0.492091
-15.178386	-3.368374	0.685658	0.002792	0.491840
-15.295591	-3.348294	0.690662	0.002813	0.491776
-15.180335	-3.433302	0.695667	0.002791	0.491638
-15.517815	-3.370442	0.700672	0.002852	0.491462
-15.422701	-3.421589	0.705677	0.002834	0.491410
-15.615444	-3.439483	0.710682	0.002868	0.491138
-15.624384	-3.449306	0.715686	0.002869	0.491101
-16.152940	-3.348349	0.720691	0.002963	0.490830
-16.061716	-3.380436	0.725696	0.002946	0.490835
-16.193208	-3.406523	0.730701	0.002969	0.490606
-16.388595	-3.363970	0.735706	0.003004	0.490526
-16.562547	-3.333593	0.740710	0.003035	0.490431
-16.745631	-3.335697	0.745715	0.003067	0.490220
-16.682610	-3.362379	0.750720	0.003055	0.490211
-17.039268	-3.326888	0.755725	0.003119	0.489924
-17.059885	-3.332226	0.760730	0.003122	0.489888
-17.009475	-3.389759	0.765734	0.003112	0.489764
-17.143656	-3.404353	0.770739	0.003135	0.489569
-17.218393	-3.401398	0.775744	0.003148	0.489498
-17.654430	-3.322579	0.780749	0.003226	0.489260
-17.345501	-3.430526	0.785754	0.003169	0.489268
-17.680706	-3.409639	0.790758	0.003229	0.488958
-17.603147	-3.436614	0.795763	0.003215	0.488964
-18.179807	-3.328506	0.800768	0.003318	0.488660
-18.180498	-3.334559	0.805773	0.003317	0.488644
-18.203879	-3.366435	0.810778	0.003321	0.488519
-18.390413	-3.356931	0.815782	0.003354	0.488341
-18.435442	-3.352986	0.820787	0.003361	0.488307
-18.631127	-3.372636	0.825792	0.003396	0.488025
-18.585665	-3.392367	0.830797	0.003387	0.488017
-18.787344	-3.385614	0.835802	0.003423	0.487813
-18.925263	-3.349904	0.840806	0.003447	0.487776
-19.122115	-3.348923	0.845811	0.003482	0.487559
-19.075330	-3.403095	0.850816	0.003473	0.487441
-19.355019	-3.352579	0.855821	0.003522	0.487290
-19.514416	-3.348874	0.860826	0.003550	0.487124
-19.671343	-3.295665	0.865830	0.003578	0.487122
-19.783078	-3.354764	0.870835	0.003598	0.486806
-19.793045	-3.347271	0.875840	0.003599	0.486824
-20.073996	-3.319252	0.880845	0.003649	0.486598
-20.106455	-3.331980	0.885850	0.003654	0.486524
-20.035078	-3.404417	0.890854	0.003640	0.486375
-20.374288	-3.342993	0.895859	0.003701	0.486190
-20.307903	-3.399057	0.900864	0.003688	0.486088
-20.800074	-3.287690	0.905869	0.003776	0.485891
-20.594149	-3.365791	0.910874	0.003738	0.485877
-20.867397	-3.358284	0.915878	0.003787	0.485593
-20.933525	-3.345305	0.920883	0.003798	0.485564
-21.184677	-3.320413	0.925888	0.003843	0.485361
-21.234325	-3.336286	0.930893	0.003851	0.485257
-21.259635	-3.370214	0.935898	0.003855	0.485122
-21.721256	-3.267473	0.940902	0.003938	0.484930
-21.616409	-3.303369	0.945907	0.003918	0.484939
-21.840337	-3.317325	0.950912	0.003958	0.484640
-21.819007	-3.328915	0.955917	0.003953	0.484631
-22.023879	-3.314925	0.960922	0.003989	0.484446
-22.315676	-3.251779	0.965926	0.004041	0.484321
-22.098365	-3.348913	0.970931	0.004001	0.484258
-22.487909	-3.288686	0.975936	0.004071	0.484011
-22.479853	-3.293060	0.980941	0.004069	0.484011
-22.583931	-3.339242	0.985946	0.004087	0.483744
-22.623596	-3.349115	0.990950	0.004093	0.483671
-22.763069	-3.358370	0.995955	0.004118	0.483484
-22.846127	-3.378548	1.000960	0.004132	0.483327

-23.125002	-3.361913	1.010957	0.004181	0.483069
-23.321805	-3.331716	1.020954	0.004215	0.482950
-23.409899	-3.352341	1.030950	0.004230	0.482790
-23.603649	-3.284101	1.040947	0.004263	0.482799
-23.581839	-3.293795	1.050944	0.004258	0.482802
-23.552884	-3.309859	1.060941	0.004251	0.482792
-23.678946	-3.319631	1.070938	0.004272	0.482624
-23.702166	-3.325271	1.080934	0.004275	0.482588
-23.512281	-3.342313	1.090931	0.004239	0.482761
-23.716462	-3.269525	1.100928	0.004275	0.482773
-23.608660	-3.304390	1.110925	0.004254	0.482792
-23.477101	-3.351043	1.120922	0.004229	0.482801
-23.463574	-3.360953	1.130918	0.004225	0.482793
-23.599040	-3.314530	1.140915	0.004248	0.482798
-23.609874	-3.314668	1.150912	0.004248	0.482794
-23.496081	-3.318692	1.160909	0.004226	0.482922
-23.225401	-3.372540	1.170906	0.004176	0.483068
-23.460799	-3.290949	1.180902	0.004217	0.483072
-23.429573	-3.305681	1.190899	0.004210	0.483069
-23.384350	-3.303261	1.200896	0.004200	0.483139
-23.150424	-3.317756	1.210893	0.004156	0.483371
-23.066539	-3.348191	1.220890	0.004140	0.483377
-23.071606	-3.351439	1.230886	0.004139	0.483370
-23.179999	-3.303780	1.240883	0.004157	0.483410
-22.748740	-3.377652	1.250880	0.004078	0.483676
-22.783791	-3.366613	1.260877	0.004083	0.483681
-22.928037	-3.319051	1.270874	0.004108	0.483679
-22.858001	-3.347301	1.280870	0.004093	0.483677
-22.587323	-3.358407	1.290867	0.004043	0.483962
-22.635441	-3.330266	1.300864	0.004050	0.484008
-22.718713	-3.304744	1.310861	0.004064	0.484004
-22.736070	-3.291382	1.320858	0.004066	0.484037
-22.462448	-3.308592	1.330854	0.004015	0.484306
-22.483194	-3.304090	1.340851	0.004017	0.484306
-22.469578	-3.311238	1.350848	0.004013	0.484308
-22.245718	-3.313559	1.360845	0.003971	0.484567
-22.116361	-3.347298	1.370842	0.003946	0.484615
-22.189151	-3.323762	1.380838	0.003958	0.484617
-22.110544	-3.353372	1.390835	0.003942	0.484621
-21.950447	-3.362856	1.400832	0.003912	0.484783
-21.984241	-3.311477	1.410829	0.003916	0.484921
-21.874382	-3.351279	1.420826	0.003895	0.484927
-21.937280	-3.332106	1.430822	0.003905	0.484927
-21.740987	-3.333938	1.440819	0.003868	0.485156
-21.647430	-3.336637	1.450816	0.003850	0.485264
-21.750265	-3.303825	1.460813	0.003867	0.485262
-21.777520	-3.297819	1.470810	0.003870	0.485259
-21.545113	-3.290521	1.480806	0.003827	0.485559
-21.608709	-3.268450	1.490803	0.003837	0.485567
-21.560289	-3.289860	1.500800	0.003827	0.485563
-21.382449	-3.265867	1.510797	0.003793	0.485854
-21.290668	-3.291466	1.520794	0.003775	0.485886
-21.361555	-3.270724	1.530790	0.003786	0.485881
-21.090021	-3.301696	1.540787	0.003736	0.486101
-21.081961	-3.279971	1.550784	0.003733	0.486190
-21.026246	-3.302598	1.560781	0.003721	0.486190
-20.827504	-3.375356	1.570778	0.003684	0.486190
-20.921564	-3.345508	1.580774	0.003700	0.486189
-20.685641	-3.342418	1.590771	0.003656	0.486479
-20.745504	-3.312875	1.600768	0.003665	0.486516
-20.670617	-3.342899	1.610765	0.003650	0.486513
-20.807562	-3.298277	1.620762	0.003673	0.486510
-20.573146	-3.309675	1.630758	0.003629	0.486751
-20.535630	-3.305178	1.640755	0.003621	0.486818
-20.518060	-3.314788	1.650752	0.003616	0.486816
-20.538240	-3.302116	1.660749	0.003619	0.486844
-20.291465	-3.302982	1.670746	0.003573	0.487133
-20.381065	-3.274419	1.680742	0.003587	0.487132
-20.311754	-3.299698	1.690739	0.003573	0.487139
-20.100571	-3.303853	1.700736	0.003534	0.487376
-19.833095	-3.381002	1.710733	0.003484	0.487441
-20.159041	-3.268635	1.720730	0.003541	0.487442
-19.819516	-3.390549	1.730726	0.003479	0.487444
-19.978957	-3.338252	1.740723	0.003506	0.487441
-19.685454	-3.347194	1.750720	0.003451	0.487757
-19.781761	-3.308386	1.760717	0.003467	0.487782
-19.749500	-3.324767	1.770714	0.003460	0.487775
-19.772349	-3.318439	1.780710	0.003463	0.487778
-19.497868	-3.345164	1.790707	0.003412	0.488015
-19.449635	-3.362247	1.800704	0.003401	0.488024
-19.476759	-3.355593	1.810701	0.003405	0.488023
-19.596660	-3.315876	1.820698	0.003425	0.488024
-19.193278	-3.365227	1.830694	0.003351	0.488334
-19.151535	-3.384121	1.840691	0.003342	0.488330
-19.187070	-3.372788	1.850688	0.003347	0.488336
-19.367260	-3.313057	1.860685	0.003378	0.488332
-19.051317	-3.343079	1.870682	0.003319	0.488605
-19.057379	-3.334738	1.880678	0.003319	0.488634
-19.030850	-3.348535	1.890675	0.003313	0.488629
-19.070252	-3.306925	1.900672	0.003318	0.488728
-18.804753	-3.333213	1.910669	0.003269	0.488955
-18.750637	-3.353028	1.920666	0.003258	0.488962
-18.790245	-3.344231	1.930662	0.003263	0.488955
-18.645864	-3.334077	1.940659	0.003236	0.489161
-18.619947	-3.317881	1.950656	0.003230	0.489253
-18.612451	-3.320340	1.960653	0.003227	0.489262
-18.464049	-3.375452	1.970650	0.003199	0.489263
-18.355763	-3.332602	1.980646	0.003178	0.489534
-18.393214	-3.307686	1.990643	0.003183	0.489581
-18.378868	-3.315859	2.000640	0.003179	0.489580
-18.162686	-3.352520	2.010637	0.003138	0.489717
-18.018451	-3.352428	2.020634	0.003111	0.489891
-18.073698	-3.335701	2.030630	0.003119	0.489891
-17.890276	-3.403366	2.040627	0.003085	0.489890
-18.033439	-3.354674	2.050624	0.003109	0.489894
-17.819473	-3.380998	2.060621	0.003069	0.490062
-17.699592	-3.376398	2.070618	0.003046	0.490222
-17.727476	-3.372116	2.080614	0.003049	0.490213
-17.785433	-3.352411	2.090611	0.003058	0.490220
-17.750813	-3.348973	2.100608	0.003051	0.490280
-17.530229	-3.352422	2.110605	0.003009	0.490529
-17.568053	-3.344419	2.120602	0.003015	0.490521
-17.525212	-3.362324	2.130598	0.003006	0.490521
-17.379134	-3.357712	2.140595	0.002978	0.490711
-17.334868	-3.338426	2.150592	0.002968	0.490833
-17.229397	-3.377103	2.160589	0.002948	0.490837
-17.403393	-3.319575	2.170586	0.002978	0.490834
-17.123705	-3.339953	2.180582	0.002926	0.491095
-17.170082	-3.314524	2.190579	0.002933	0.491133
-17.018578	-3.370194	2.200576	0.002904	0.491135
-17.098881	-3.301737	2.210573	0.002917	0.491274
-16.640081	-3.404556	2.220570	0.002832	0.491473
-16.873015	-3.325680	2.230566	0.002873	0.491471
-16.661695	-3.402305	2.240563	0.002833	0.491474
-16.821333	-3.349041	2.250560	0.002861	0.491473
-16.571386	-3.371555	2.260557	0.002814	0.491693
-16.489477	-3.379241	2.270554	0.002798	0.491771
-16.500946	-3.377815	2.280550	0.002799	0.491772
-16.582636	-3.351231	2.290547	0.002812	0.491774
-16.253302	-3.397450	2.300544	0.002751	0.492007
-16.406753	-3.320864	2.310541	0.002777	0.492089
-16.206473	-3.394920	2.320538	0.002739	0.492087
-16.325553	-3.354959	2.330534	0.002760	0.492090
-16.062201	-3.377197	2.340531	0.002710	0.492326
-16.047463	-3.363299	2.350528	0.002706	0.492396
-16.000188	-3.381270	2.360525	0.002696	0.492401
-16.105570	-3.346588	2.370522	0.002714	0.492402
-15.907536	-3.338947	2.380518	0.002677	0.492660
-15.800980	-3.356808	2.390515	0.002656	0.492733
-15.931212	-3.314790	2.400512	0.002678	0.492729
-15.873412	-3.320608	2.410509	0.002666	0.492785
-15.455946	-3.404747	2.420506	0.002589	0.492997
-15.654200	-3.336714	2.430502	0.002624	0.493000
-15.695966	-3.324619	2.440499	0.002630	0.493001
-15.615143	-3.298889	2.450496	0.002614	0.493184
-15.445765	-3.324104	2.460493	0.002582	0.493303
-15.467599	-3.320169	2.470490	0.002584	0.493300
-15.243283	-3.357014	2.480486	0.002542	0.493445
-15.146786	-3.342770	2.490483	0.002523	0.493609
-15.125887	-3.354865	2.500480	0.002518	0.493603
-15.123783	-3.355736	2.510477	0.002516	0.493611
-15.053112	-3.355924	2.520474	0.002502	0.493700
-14.880776	-3.345780	2.530470	0.002469	0.493936
-14.951338	-3.324912	2.540467	0.002481	0.493932
-14.798641	-3.381166	2.550464	0.002451	0.493934
-14.850390	-3.330317	2.560461	0.002459	0.494047
-14.800714	-3.291396	2.570458	0.002449	0.494237
-14.620163	-3.357592	2.580454	0.002415	0.494238
-14.684796	-3.337227	2.590451	0.002425	0.494239
-14.499165	-3.322465	2.600448	0.002390	0.494505
-14.511992	-3.304640	2.610445	0.002391	0.494557
-14.406098	-3.346030	2.620442	0.002370	0.494553
-14.493004	-3.308587	2.630438	0.002385	0.494584
-14.012213	-3.393555	2.640435	0.002296	0.494863
-14.086940	-3.371282	2.650432	0.002308	0.494859
-14.149652	-3.350677	2.660429	0.002318	0.494863
-14.146425	-3.357219	2.670426	0.002316	0.494855
-13.997288	-3.332714	2.680422	0.002288	0.495111
-13.854661	-3.360179	2.690419	0.002260	0.495193
-13.811913	-3.378954	2.700416	0.002251	0.495190
-13.935968	-3.338460	2.710413	0.002272	0.495189
-13.712897	-3.355890	2.720410	0.002230	0.495393
-13.692467	-3.333478	2.730406	0.002225	0.495497
-13.729294	-3.324213	2.740403	0.002230	0.495494
-13.659418	-3.350533	2.750400	0.002216	0.495498
-13.487537	-3.343849	2.760397	0.002184	0.495721
-13.473589	-3.324288	2.770394	0.002180	0.495809
-13.465159	-3.331468	2.780390	0.002177	0.495804
-13.392490	-3.359029	2.790387	0.002162	0.495807
-13.176571	-3.353045	2.800384	0.002122	0.496078
-13.105777	-3.367981	2.810381	0.002108	0.496119
-13.246656	-3.321398	2.820378	0.002132	0.496118
-13.210352	-3.338846	2.830374	0.002124	0.496113
-12.849805	-3.371751	2.840371	0.002057	0.496422
-12.998757	-3.316276	2.850368	0.002082	0.496440
-13.022618	-3.309498	2.860365	0.002085	0.496444
-12.872995	-3.356986	2.870362	0.002057	0.496470
-12.576350	-3.378129	2.880358	0.002002	0.496745
-12.716885	-3.330858	2.890355	0.002026	0.496747
-12.641040	-3.361205	2.900352	0.002010	0.496744
-12.722046	-3.332698	2.910349	0.002024	0.496753
-12.372464	-3.364078	2.920346	0.001959	0.497055
-12.367496	-3.365595	2.930342	0.001957	0.497064
-12.374228	-3.366611	2.940339	0.001956	0.497063
-12.433474	-3.346289	2.950336	0.001966	0.497070
-12.156944	-3.372412	2.960333	0.001914	0.497306
-12.183152	-3.342244	2.970330	0.001917	0.497382
-12.045497	-3.396445	2.980326	0.001891	0.497373
-12.070885	-3.387997	2.990323	0.001894	0.497380
-12.141847	-3.337304	3.000320	0.001906	0.497471
-11.808647	-3.381117	3.010317	0.001844	0.497714
-11.782045	-3.391745	3.020314	0.001838	0.497719
-11.823304	-3.380946	3.030310	0.001844	0.497716
-11.767459	-3.403973	3.040307	0.001832	0.497715
-11.682023	-3.375391	3.050304	0.001815	0.497910
-11.624409	-3.381128	3.060301	0.001803	0.497966
-11.723173	-3.347388	3.070298	0.001820	0.497971
-11.614724	-3.367894	3.080294	0.001799	0.498036
-11.310702	-3.402230	3.090291	0.001742	0.498277
-11.294985	-3.411727	3.100288	0.001738	0.498273
-11.316707	-3.405897	3.110285	0.001740	0.498276
-11.268851	-3.425208	3.120282	0.001730	0.498278
-11.212144	-3.379322	3.130278	0.001719	0.498496
-11.251714	-3.340912	3.140275	0.001724	0.498582
-11.132326	-3.386819	3.150272	0.001701	0.498579
-11.114436	-3.342723	3.160269	0.001697	0.498748
-10.909520	-3.368000	3.170266	0.001658	0.498906
-10.861937	-3.387585	3.180262	0.001648	0.498906
-10.940066	-3.363397	3.190259	0.001661	0.498905
-10.620494	-3.436253	3.200256	0.001601	0.499040
-10.705018	-3.355893	3.210253	0.001615	0.499209
-10.505811	-3.429753	3.220250	0.001578	0.499207
-10.614146	-3.392735	3.230246	0.001596	0.499212
-10.671806	-3.360862	3.240243	0.001605	0.499258
-10.319352	-3.404392	3.250240	0.001540	0.499522
-10.278615	-3.420884	3.260237	0.001531	0.499524
-10.415235	-3.375450	3.270234	0.001554	0.499525
-10.456985	-3.331018	3.280230	0.001560	0.499628
-10.096268	-3.396392	3.290227	0.001494	0.499832
-10.226928	-3.353059	3.300224	0.001516	0.499833
-10.065479	-3.414177	3.310221	0.001485	0.499828
-10.067409	-3.359425	3.320218	0.001484	0.500009
-10.022577	-3.329503	3.330214	0.001474	0.500162
-10.039867	-3.325453	3.340211	0.001476	0.500165
-9.825721	-3.403158	3.350208	0.001436	0.500167
-9.860619	-3.304376	3.360205	0.001441	0.500449
-9.696339	-3.357590	3.370202	0.001410	0.500473
-9.672126	-3.369282	3.380198	0.001404	0.500472
-9.578309	-3.353402	3.390195	0.001385	0.500636
-9.471854	-3.347529	3.400192	0.001365	0.500782
-9.401035	-3.375155	3.410189	0.001350	0.500782
-9.518256	-3.336373	3.420186	0.001370	0.500783
-9.257547	-3.374747	3.430182	0.001322	0.500961
-9.245911	-3.340223	3.440179	0.001318	0.501092
-9.173569	-3.370342	3.450176	0.001303	0.501086
-9.360107	-3.307424	3.460173	0.001336	0.501086
-9.000344	-3.357540	3.470170	0.001269	0.501337
-8.799837	-3.404231	3.480166	0.001232	0.501422
-8.830168	-3.399621	3.490163	0.001236	0.501412
-8.835447	-3.399605	3.500160	0.001235	0.501415
-8.761301	-3.429369	3.510157	0.001220	0.501413
-8.735360	-3.385573	3.520154	0.001214	0.501589
-8.504756	-3.430499	3.530150	0.001171	0.501712
-8.511875	-3.429611	3.540147	0.001171	0.501716
-8.505124	-3.436958	3.550144	0.001168	0.501709
-8.564548	-3.418203	3.560141	0.001177	0.501711
-8.385500	-3.425142	3.570138	0.001144	0.501897
-8.300179	-3.414069	3.580134	0.001127	0.502036
-8.272059	-3.425191	3.590131	0.001120	0.502041
-8.373782	-3.395570	3.600128	0.001137	0.502030
-8.209061	-3.405239	3.610125	0.001106	0.502192
-8.159864	-3.374877	3.620122	0.001095	0.502351
-8.027142	-3.425153	3.630118	0.001070	0.502349
-8.153701	-3.382373	3.640115	0.001091	0.502352
-7.983492	-3.373651	3.650112	0.001059	0.502577
-7.875786	-3.382134	3.660109	0.001038	0.502679
-7.746983	-3.427799	3.670106	0.001014	0.502687
-7.896101	-3.381266	3.680102	0.001039	0.502677
-7.620886	-3.413014	3.690099	0.000988	0.502891
-7.601958	-3.403519	3.700096	0.000983	0.502951
-7.592513	-3.410107	3.710093	0.000980	0.502950
-7.606756	-3.405548	3.720090	0.000981	0.502957
-7.308880	-3.438965	3.730086	0.000926	0.503191
-7.298405	-3.422053	3.740083	0.000922	0.503265
-7.216558	-3.455529	3.750080	0.000906	0.503259
-7.335221	-3.416352	3.760077	0.000926	0.503260
-7.186369	-3.464702	3.770074	0.000898	0.503282
-7.026570	-3.433984	3.780070	0.000867	0.503564
-7.009752	-3.443370	3.790067	0.000863	0.503562
-7.165463	-3.391819	3.800064	0.000889	0.503561
-7.016277	-3.423010	3.810061	0.000861	0.503637
-6.907208	-3.385503	3.820058	0.000840	0.503884
-6.754754	-3.439634	3.830054	0.000811	0.503892
-6.982641	-3.363964	3.840051	0.000851	0.503886
-6.589399	-3.432486	3.850048	0.000778	0.504115
-6.558202	-3.423917	3.860045	0.000771	0.504186
-6.491583	-3.446596	3.870042	0.000757	0.504197
-6.703706	-3.375624	3.880038	0.000794	0.504194
-6.400552	-3.425696	3.890035	0.000738	0.504381
-6.456274	-3.368179	3.900032	0.000747	0.504509
-6.293524	-3.430223	3.910029	0.000716	0.504503
-6.327101	-3.419628	3.920026	0.000720	0.504508
-6.129171	-3.419803	3.930022	0.000683	0.504735
-6.020905	-3.435027	3.940019	0.000662	0.504816
-5.999217	-3.446442	3.950016	0.000657	0.504813
-5.920135	-3.477077	3.960013	0.000641	0.504813
-5.994195	-3.452736	3.970010	0.000653	0.504816
-5.785514	-3.433776	3.980006	0.000614	0.505115
-5.795742	-3.425142	3.990003	0.000614	0.505140
-5.697080	-3.459619	4.000000	0.000595	0.505150
-5.787904	-3.430392	4.009997	0.000610	0.505150
-5.531970	-3.457672	4.019994	0.000562	0.505356
-5.478295	-3.447178	4.029990	0.000551	0.505457
-5.492534	-3.446894	4.039987	0.000552	0.505451
-5.437138	-3.466981	4.049984	0.000541	0.505458
-5.434094	-3.457698	4.059981	0.000539	0.505499
-5.260321	-3.435114	4.069978	0.000506	0.505770
-5.216297	-3.455754	4.079974	0.000496	0.505763
-5.282166	-3.434748	4.089971	0.000507	0.505765
-5.213195	-3.413304	4.099968	0.000493	0.505917
-4.983034	-3.446343	4.109965	0.000450	0.506076
-5.035284	-3.430788	4.119962	0.000458	0.506076
-4.998539	-3.446036	4.129958	0.000450	0.506078
-4.792636	-3.472398	4.139955	0.000411	0.506231
-4.669003	-3.463930	4.149952	0.000387	0.506402
-4.661280	-3.468023	4.159949	0.000384	0.506407
-4.580770	-3.500223	4.169946	0.000368	0.506404
-4.709569	-3.458263	4.179942	0.000390	0.506402
-4.457137	-3.489525	4.189939	0.000343	0.506591
-4.353491	-3.493382	4.199936	0.000323	0.506702
-4.368628	-3.490920	4.209933	0.000324	0.506702
-4.415009	-3.478160	4.219930	0.000331	0.506700
-4.399084	-3.487622	4.229926	0.000327	0.506697
-4.253043	-3.455456	4.239923	0.000299	0.506966
-4.054625	-3.510030	4.249920	0.000262	0.507023
-4.031147	-3.521567	4.259917	0.000256	0.507022
-4.241730	-3.450208	4.269914	0.000292	0.507022
-3.991385	-3.468298	4.279910	0.000246	0.507249
-3.876957	-3.485035	4.289907	0.000224	0.507332
-3.782855	-3.521212	4.299904	0.000205	0.507331
-3.742629	-3.536645	4.309901	0.000196	0.507336
-3.765208	-3.485540	4.319898	0.000199	0.507480
-3.451286	-3.540047	4.329894	0.000141	0.507663
-3.639911	-3.474458	4.339891	0.000173	0.507669
-3.532857	-3.515789	4.349888	0.000153	0.507667
-3.388385	-3.569994	4.359885	0.000125	0.507666
-3.592577	-3.466559	4.369882	0.000161	0.507773
-3.577904	-3.431969	4.379878	0.000156	0.507905
-3.397549	-3.498156	4.389875	0.000122	0.507906
-3.368273	-3.475570	4.399872	0.000116	0.508017
-3.245153	-3.457630	4.409869	0.000092	0.508217
-3.101875	-3.511213	4.419866	0.000065	0.508216
-3.268541	-3.453499	4.429862	0.000093	0.508222
-3.026039	-3.448090	4.439859	0.000048	0.508513
-3.074856	-3.432652	4.449856	0.000055	0.508517
-3.083460	-3.432367	4.459853	0.000055	0.508517
-2.792649	-3.439087	4.469850	0.000001	0.508824
-2.725496	-3.458220	4.479846	-0.000012	0.508847
-2.857179	-3.415437	4.489843	0.000010	0.508844
-2.743476	-3.405495	4.499840	-0.000012	0.509008
-2.634552	-3.403930	4.509837	-0.000033	0.509141
-2.506264	-3.450291	4.519834	-0.000058	0.509147
-2.483901	-3.459310	4.529830	-0.000063	0.509152
-2.263483	-3.455976	4.539827	-0.000104	0.509412
-2.225572	-3.457643	4.549824	-0.000113	0.509457
-2.191216	-3.473556	4.559821	-0.000120	0.509454
-2.240375	-3.456963	4.569818	-0.000113	0.509461
-2.183932	-3.439885	4.579814	-0.000125	0.509585
-2.154129	-3.392623	4.589811	-0.000132	0.509773
-2.022141	-3.440942	4.599808	-0.000157	0.509776
-2.103743	-3.411163	4.609805	-0.000144	0.509788
-1.862516	-3.397218	4.619802	-0.000189	0.510103
-1.890093	-3.390889	4.629798	-0.000185	0.510102
-1.891774	-3.391720	4.639795	-0.000186	0.510106
-1.802936	-3.359676	4.649792	-0.000204	0.510311
-1.835250	-3.321595	4.659789	-0.000199	0.510403
-1.769291	-3.346150	4.669786	-0.000213	0.510408
-1.620987	-3.312698	4.679782	-0.000241	0.510682
-1.612237	-3.309441	4.689779	-0.000244	0.510710
-1.477563	-3.358538	4.699776	-0.000270	0.510714
-1.516010	-3.262338	4.709773	-0.000264	0.510979
-1.357445	-3.307768	4.719770	-0.000295	0.511020
-1.398658	-3.285633	4.729766	-0.000289	0.511052
-1.408123	-3.186560	4.739763	-0.000288	0.511357
-1.396233	-3.195342	4.749760	-0.000292	0.511352
-1.248792	-3.172295	4.759757	-0.000320	0.511592
-1.236852	-3.157171	4.769754	-0.000324	0.511661
-1.328345	-3.071607	4.779750	-0.000309	0.511834
-1.405039	-3.004083	4.789747	-0.000296	0.511968
-1.332654	-2.943312	4.799744	-0.000311	0.512243
-1.305865	-2.909967	4.809741	-0.000317	0.512384
-1.158493	-2.890107	4.819738	-0.000345	0.512615
-1.107747	-2.864728	4.829734	-0.000356	0.512757
-1.090969	-2.835059	4.839731	-0.000360	0.512875
-1.116126	-2.731639	4.849728	-0.000357	0.513175
-1.118525	-2.679361	4.859725	-0.000358	0.513343
-1.067381	-2.636517	4.869722	-0.000369	0.513539
-1.011633	-2.572313	4.879718	-0.000380	0.513806
-0.962392	-2.515795	4.889715	-0.000391	0.514042
-0.739430	-2.542002	4.899712	-0.000433	0.514211
-0.893681	-2.421152	4.909709	-0.000406	0.514425
-0.758867	-2.372549	4.919706	-0.000432	0.514729
-0.856365	-2.269859	4.929702	-0.000416	0.514947
-0.812128	-2.204200	4.939699	-0.000425	0.515205
-0.720242	-2.158499	4.949696	-0.000443	0.515454
-0.744096	-2.065601	4.959693	-0.000441	0.515721
-0.738812	-1.977951	4.969690	-0.000443	0.516005
-0.678291	-1.899201	4.979686	-0.000455	0.516320
-0.590901	-1.840696	4.989683	-0.000473	0.516602
-0.664176	-1.724070	4.999680	-0.000461	0.516888
-0.565267	-1.663092	5.009677	-0.000480	0.517190
-0.564196	-1.561953	5.019674	-0.000482	0.517509
-0.462390	-1.512013	5.029670	-0.000502	0.517780
-0.507398	-1.401651	5.039667	-0.000495	0.518077
-0.419308	-1.331444	5.049664	-0.000512	0.518395
-0.495671	-1.199187	5.059661	-0.000500	0.518724
-0.475529	-1.083804	5.069658	-0.000505	0.519106
-0.352289	-1.013937	5.079654	-0.000529	0.519460
-0.306933	-0.922111	5.089651	-0.000539	0.519797
-0.227584	-0.835197	5.099648	-0.000554	0.520154
-0.244205	-0.719688	5.109645	-0.000553	0.520496
-0.124642	-0.656206	5.119642	-0.000576	0.520826
-0.335488	-0.456751	5.129638	-0.000539	0.521214
-0.257749	-0.343177	5.139635	-0.000555	0.521650
-0.230546	-0.227534	5.149632	-0.000561	0.522038
-0.186171	-0.111068	5.159629	-0.000571	0.522447
-0.072725	-0.021415	5.169626	-0.000593	0.522847
-0.122555	0.125827	5.179622	-0.000585	0.523248
0.000000	0.143494	5.189619	-0.000609	0.523440

-0.084523	0.296939	5.194624	-0.000594	0.523818
0.011552	0.451905	5.199629	-0.000612	0.524392
0.064059	0.752579	5.204634	-0.000623	0.525358
0.160117	1.127674	5.209638	-0.000641	0.526591
0.172423	1.609735	5.214643	-0.000644	0.528054
0.315030	2.147934	5.219648	-0.000670	0.529817
0.465274	2.768651	5.224653	-0.000698	0.531827
0.621637	3.470782	5.229658	-0.000727	0.534078
0.640848	4.298251	5.234662	-0.000732	0.536546
0.845262	5.128796	5.239667	-0.000769	0.539203
0.885971	6.099624	5.244672	-0.000777	0.542088
1.042861	7.092729	5.249677	-0.000807	0.545141
1.081731	8.179566	5.254682	-0.000814	0.548327
1.160573	9.326060	5.259686	-0.000830	0.551706
1.366029	10.481469	5.264691	-0.000867	0.555217
1.737069	11.645522	5.269696	-0.000935	0.558896
1.606728	13.037515	5.274701	-0.000913	0.562694
1.858721	14.348842	5.279706	-0.000959	0.566618
1.824626	15.798539	5.284710	-0.000954	0.570619
2.156750	17.179922	5.289715	-0.001015	0.574759
2.219668	18.691301	5.294720	-0.001027	0.578966
2.480918	20.197446	5.299725	-0.001075	0.583317
2.539506	21.795946	5.304730	-0.001086	0.587692
2.808320	23.365577	5.309734	-0.001136	0.592156
2.905813	25.033007	5.314739	-0.001154	0.596685
3.175775	26.679386	5.319744	-0.001204	0.601285
3.221413	28.435112	5.324749	-0.001213	0.605929
3.272351	30.220394	5.329754	-0.001223	0.610619
3.444951	31.987824	5.334758	-0.001255	0.615337
3.546333	33.818816	5.339763	-0.001274	0.620118
3.780565	35.625638	5.344768	-0.001318	0.624918
3.954846	37.477114	5.349773	-0.001350	0.629742
4.063440	39.370068	5.354778	-0.001371	0.634575
4.432622	41.204826	5.359782	-0.001438	0.639453
4.519229	43.166099	5.364787	-0.001455	0.644362
4.723150	45.096323	5.369792	-0.001493	0.649257
4.818292	47.087794	5.374797	-0.001511	0.654172
5.025065	49.059722	5.379802	-0.001549	0.659098
5.156524	51.076425	5.384806	-0.001574	0.664030
5.507614	53.034826	5.389811	-0.001638	0.668971
5.593410	55.087668	5.394816	-0.001654	0.673878
5.868068	57.093821	5.399821	-0.001705	0.678796
6.127314	59.115812	5.404826	-0.001753	0.683702
6.417025	61.145787	5.409830	-0.001806	0.688616
6.503847	63.250795	5.414835	-0.001822	0.693504
6.850372	65.285365	5.419840	-0.001886	0.698404
6.931052	67.413798	5.424845	-0.001901	0.703272
7.216701	69.478163	5.429850	-0.001954	0.708123
7.467953	71.560037	5.434854	-0.002000	0.712954
7.560463	73.708085	5.439859	-0.002018	0.717775
7.666202	75.857434	5.444864	-0.002038	0.722577
8.111237	77.892657	5.449869	-0.002119	0.727357
8.108048	80.089834	5.454874	-0.002120	0.732117
8.408015	82.187405	5.459878	-0.002175	0.736860
8.607598	84.322095	5.464883	-0.002212	0.741577
8.860319	86.451428	5.469888	-0.002258	0.746293
9.311335	88.496243	5.474893	-0.002341	0.750946
9.629924	90.612733	5.479898	-0.002399	0.755624
9.976521	92.709048	5.484902	-0.002463	0.760252
10.450502	94.786833	5.489907	-0.002549	0.764905
10.328461	97.054435	5.494912	-0.002528	0.769492
10.569256	99.201818	5.499917	-0.002573	0.774065
10.810273	101.343734	5.504922	-0.002617	0.778601
10.972972	103.524264	5.509926	-0.002647	0.783132
11.321002	105.623241	5.514931	-0.002711	0.787604
11.629799	107.748313	5.519936	-0.002768	0.792075
11.934734	109.871370	5.524941	-0.002824	0.796515
12.046295	112.073295	5.529946	-0.002845	0.800952
12.253189	114.231583	5.534950	-0.002883	0.805344
12.555846	116.354523	5.539955	-0.002939	0.809709
12.718944	118.526851	5.544960	-0.002969	0.814052
12.924343	120.685884	5.549965	-0.003007	0.818374
13.106662	122.847027	5.554970	-0.003041	0.822662
13.190542	125.035865	5.559974	-0.003057	0.826915
13.315379	127.197805	5.564979	-0.003081	0.831123
13.619818	129.306773	5.569984	-0.003137	0.835327
13.576683	131.532445	5.574989	-0.003130	0.839502
13.973509	133.602884	5.579994	-0.003203	0.843653
14.070500	135.764027	5.584998	-0.003221	0.847757
14.505940	137.825033	5.590003	-0.003301	0.851876
14.602787	139.999251	5.595008	-0.003319	0.855965
14.806331	142.135462	5.600013	-0.003357	0.860033
14.798460	144.335753	5.605018	-0.003356	0.864064
15.028324	146.439940	5.610022	-0.003399	0.868053
15.078017	148.608159	5.615027	-0.003409	0.872025
15.319186	150.714779	5.620032	-0.003453	0.875989
15.363626	152.882202	5.625037	-0.003462	0.879921
15.652726	154.975986	5.630042	-0.003515	0.883856
15.742040	157.105543	5.635046	-0.003532	0.887714
15.748382	159.288799	5.640051	-0.003534	0.891598
15.876778	161.409858	5.645056	-0.003558	0.895432
16.252372	163.457289	5.650061	-0.003627	0.899270
16.466239	165.560633	5.655066	-0.003667	0.903092
16.397988	167.742486	5.660070	-0.003655	0.906863
16.545717	169.850725	5.665075	-0.003683	0.910621
16.854284	171.912160	5.670080	-0.003740	0.914380
16.937135	174.038266	5.675085	-0.003755	0.918099
17.034206	176.166638	5.680090	-0.003774	0.921815
17.032712	178.311495	5.685094	-0.003775	0.925487
17.104211	180.437930	5.690099	-0.003788	0.929155
17.302102	182.512712	5.695104	-0.003825	0.932796
17.429562	184.615449	5.700109	-0.003849	0.936429
17.359824	186.781141	5.705114	-0.003837	0.940038
17.563190	188.864413	5.710118	-0.003875	0.943655
17.443330	191.009718	5.715123	-0.003854	0.947174
17.694072	193.063576	5.720128	-0.003900	0.950741
17.820261	195.149568	5.725133	-0.003924	0.954277
17.880269	197.253518	5.730138	-0.003936	0.957792
18.107080	199.307059	5.735142	-0.003978	0.961306
18.119609	201.436291	5.740147	-0.003981	0.964809
18.147400	203.542597	5.745152	-0.003987	0.968271
18.245588	205.634684	5.750157	-0.004006	0.971737
18.306889	207.722868	5.755162	-0.004018	0.975164
18.420027	209.818040	5.760166	-0.004039	0.978619
18.416745	211.926070	5.765171	-0.004039	0.982017
18.577648	213.988956	5.770176	-0.004069	0.985423
18.649480	216.069789	5.775181	-0.004083	0.988796
18.654383	218.172622	5.780186	-0.004085	0.992156
18.882218	220.191107	5.785190	-0.004127	0.995494
18.771413	222.337916	5.790195	-0.004108	0.998837
18.903508	224.391862	5.795200	-0.004133	1.002156
18.836945	226.508316	5.800205	-0.004122	1.005454
19.167311	228.495279	5.805210	-0.004182	1.008753
19.067307	230.638650	5.810214	-0.004165	1.012053
19.180255	232.685708	5.815219	-0.004186	1.015308
19.056217	234.838862	5.820224	-0.004165	1.018589
19.262110	236.844072	5.825229	-0.004203	1.021807
19.379771	238.899235	5.830234	-0.004225	1.025046
19.379142	240.991508	5.835238	-0.004226	1.028268
19.346070	243.079579	5.840243	-0.004221	1.031457
19.521098	245.103194	5.845248	-0.004253	1.034647
19.683069	247.155166	5.850253	-0.004284	1.037864
19.816650	249.193604	5.855258	-0.004309	1.041035
19.807151	251.299810	5.860262	-0.004308	1.044224
19.793279	253.383442	5.865267	-0.004306	1.047367
20.006672	255.398368	5.870272	-0.004346	1.050516
20.166803	257.439215	5.875277	-0.004376	1.053667
20.153365	259.532519	5.880282	-0.004374	1.056797
20.203783	261.610249	5.885286	-0.004384	1.059927
20.450840	263.623449	5.890291	-0.004430	1.063053
20.280362	265.744268	5.895296	-0.004400	1.066116
20.335218	267.813219	5.900301	-0.004411	1.069208
20.242204	269.924675	5.905306	-0.004395	1.072279
20.521560	271.897554	5.910310	-0.004446	1.075326
20.503078	273.990933	5.915315	-0.004444	1.078390
20.453790	276.078998	5.920320	-0.004436	1.081423
20.440949	278.146681	5.925325	-0.004434	1.084436
20.468226	280.219570	5.930330	-0.004440	1.087468
20.535381	282.251973	5.935334	-0.004453	1.090452
20.605594	284.309057	5.940339	-0.004467	1.093466
20.560175	286.384419	5.945344	-0.004459	1.096441
20.814344	288.377368	5.950349	-0.004506	1.099437
20.840556	290.449543	5.955354	-0.004512	1.102426
20.898060	292.474969	5.960358	-0.004523	1.105356
20.818097	294.580973	5.965363	-0.004510	1.108325
21.062353	296.566078	5.970368	-0.004555	1.111274
21.128640	298.605724	5.975373	-0.004568	1.114205
21.153458	300.684763	5.980378	-0.004573	1.117163
21.211998	302.720037	5.985382	-0.004584	1.120069
21.208026	304.809562	5.990387	-0.004585	1.123013
21.241640	306.847734	5.995392	-0.004592	1.125895
21.380878	308.874881	6.000397	-0.004618	1.128806
21.592295	310.879170	6.005402	-0.004657	1.131712
21.455899	312.993454	6.010406	-0.004633	1.134596
21.486714	315.048741	6.015411	-0.004639	1.137472
21.642263	317.065722	6.020416	-0.004669	1.140346
21.776551	319.093694	6.025421	-0.004694	1.143219
21.728827	321.163667	6.030426	-0.004686	1.146056
21.689232	323.232922	6.035430	-0.004680	1.148888
21.829239	325.252572	6.040435	-0.004706	1.151731
21.950790	327.266254	6.045440	-0.004729	1.154549
22.015230	329.329790	6.050445	-0.004741	1.157402
22.069674	331.363987	6.055450	-0.004752	1.160203
22.095466	333.431399	6.060454	-0.004758	1.163029
22.072404	335.484284	6.065459	-0.004754	1.165806
22.147465	337.528954	6.070464	-0.004769	1.168611
22.371860	339.511326	6.075469	-0.004810	1.171394
22.371526	341.578415	6.080474	-0.004811	1.174181
22.422694	343.631660	6.085478	-0.004821	1.176966
22.650093	345.618092	6.090483	-0.004863	1.179737
22.518876	347.740410	6.095488	-0.004841	1.182517
22.388235	349.813606	6.100493	-0.004818	1.185226
22.631166	351.797714	6.105498	-0.004863	1.187982
22.640473	353.857350	6.110502	-0.004865	1.190724
22.802705	355.861890	6.115507	-0.004895	1.193457
22.713522	357.950400	6.120512	-0.004880	1.196180
22.828555	359.975103	6.125517	-0.004902	1.198905
22.813970	362.047910	6.130522	-0.004900	1.201629
22.888743	364.053201	6.135526	-0.004915	1.204299
22.926824	366.112515	6.140531	-0.004922	1.207016
23.116037	368.086437	6.145536	-0.004958	1.209684
23.204668	370.140433	6.150541	-0.004974	1.212406
23.217379	372.176804	6.155546	-0.004978	1.215064
23.176884	374.272843	6.160550	-0.004971	1.217771
23.318112	376.280415	6.165555	-0.004998	1.220437
23.414597	378.306764	6.170560	-0.005016	1.223102
23.427569	380.348888	6.175565	-0.005019	1.225745
23.420949	382.403609	6.180570	-0.005019	1.228390
23.501897	384.435768	6.185574	-0.005034	1.231038
23.554068	386.465789	6.190579	-0.005045	1.233666
23.570167	388.525375	6.195584	-0.005049	1.236310
23.667142	390.536084	6.200589	-0.005067	1.238921
23.527844	392.649757	6.205594	-0.005043	1.241555
23.690981	394.620043	6.210598	-0.005073	1.244132
23.628123	396.698525	6.215603	-0.005063	1.246744
23.740221	398.702436	6.220608	-0.005084	1.249331
23.725734	400.766570	6.225613	-0.005082	1.251934
23.753296	402.787003	6.230618	-0.005088	1.254495
23.934073	404.798805	6.235622	-0.005122	1.257106
23.993880	406.829226	6.240627	-0.005133	1.259683
23.997870	408.880345	6.245632	-0.005135	1.262256
24.059225	410.890156	6.250637	-0.005147	1.264798
23.983691	412.974573	6.255642	-0.005134	1.267368
24.023238	414.996310	6.260646	-0.005142	1.269905
24.084613	417.020375	6.265651	-0.005154	1.272449
24.198613	419.025627	6.270656	-0.005176	1.274986
24.339189	421.042348	6.275661	-0.005202	1.277544
24.508028	423.040342	6.280666	-0.005234	1.280086
24.223940	425.185910	6.285670	-0.005183	1.282613
24.373322	427.173901	6.290675	-0.005211	1.285124
24.430808	429.202527	6.295680	-0.005222	1.287642
24.532138	431.216233	6.300685	-0.005242	1.290155
24.562414	433.261293	6.305690	-0.005248	1.292671
24.684796	435.265905	6.310694	-0.005271	1.295172
24.806360	437.287073	6.315699	-0.005294	1.297687
24.789106	439.351394	6.320704	-0.005292	1.300193
24.772109	441.416831	6.325709	-0.005289	1.302695
24.995136	443.385629	6.330714	-0.005331	1.305174
24.982463	445.440694	6.335718	-0.005329	1.307656
25.067145	447.454122	6.340723	-0.005345	1.310123
25.043315	449.512732	6.345728	-0.005342	1.312595
25.224723	451.487489	6.350733	-0.005376	1.315046
25.109985	453.582227	6.355738	-0.005356	1.317515
25.213455	455.591818	6.360742	-0.005375	1.319967
25.192485	457.639708	6.365747	-0.005373	1.322409
25.378516	459.614020	6.370752	-0.005407	1.324843
25.326443	461.676587	6.375757	-0.005399	1.327281
25.244907	463.754665	6.380762	-0.005385	1.329721
25.464860	465.716731	6.385766	-0.005425	1.332141
25.518797	467.745054	6.390771	-0.005436	1.334568
25.464560	469.817418	6.395776	-0.005427	1.336999
25.647470	471.799859	6.400781	-0.005461	1.339415
25.731350	473.825193	6.405786	-0.005477	1.341837
25.633533	475.869672	6.410790	-0.005460	1.344204
25.848902	477.851178	6.415795	-0.005500	1.346619
25.896488	479.880617	6.420800	-0.005510	1.349019
25.887829	481.951687	6.425805	-0.005509	1.351440
25.903854	483.965763	6.430810	-0.005513	1.353801
25.848684	486.041910	6.435814	-0.005504	1.356201
25.977614	488.040772	6.440819	-0.005528	1.358581
25.976871	490.095166	6.445824	-0.005529	1.360969
26.000055	492.099500	6.450829	-0.005534	1.363304
25.927098	494.172521	6.455834	-0.005522	1.365678
26.083407	496.152446	6.460838	-0.005551	1.368029
26.156627	498.189201	6.465843	-0.005565	1.370410
26.266017	500.182118	6.470848	-0.005586	1.372750
26.235169	502.239791	6.475853	-0.005581	1.375106
26.332501	504.258069	6.480858	-0.005599	1.377462
26.237433	506.326744	6.485862	-0.005583	1.379797
26.300889	508.344701	6.490867	-0.005596	1.382132
26.382775	510.335093	6.495872	-0.005611	1.384439
26.478106	512.361013	6.500877	-0.005629	1.386788
26.471348	514.380791	6.505882	-0.005629	1.389086
26.608368	516.394107	6.510886	-0.005655	1.391428
26.717169	518.378083	6.515891	-0.005675	1.393722
26.640507	520.466323	6.520896	-0.005662	1.396060
26.638550	522.490781	6.525901	-0.005663	1.398350
26.598567	524.558457	6.530906	-0.005657	1.400670
26.745409	526.525912	6.535910	-0.005684	1.402945
26.779076	528.564371	6.540915	-0.005691	1.405253
26.772925	530.597189	6.545920	-0.005691	1.407536
27.053041	532.553714	6.550925	-0.005742	1.409839
26.959036	534.627864	6.555930	-0.005726	1.412127
27.089288	536.627284	6.560934	-0.005751	1.414413
27.182314	538.648672	6.565939	-0.005768	1.416706
27.214664	540.674906	6.570944	-0.005775	1.418977
27.362298	542.679361	6.575949	-0.005803	1.421265
27.399079	544.682531	6.580954	-0.005810	1.423505
27.267110	546.781448	6.585958	-0.005787	1.425784
27.350708	548.777134	6.590963	-0.005803	1.428027
27.253732	550.868723	6.595968	-0.005787	1.430304
27.635235	552.763942	6.600973	-0.005857	1.432540
27.484392	554.862005	6.605978	-0.005830	1.434798
27.672126	556.845601	6.610982	-0.005865	1.437051
27.624141	558.911846	6.615987	-0.005857	1.439305
27.739205	560.920812	6.620992	-0.005879	1.441553
27.638578	562.969789	6.625997	-0.005862	1.443761
27.726938	564.998292	6.631002	-0.005879	1.446013
27.696548	567.015408	6.636006	-0.005874	1.448205
27.486905	569.148256	6.641011	-0.005837	1.450454
27.723547	571.080580	6.646016	-0.005881	1.452646
27.915635	573.061518	6.651021	-0.005916	1.454871
27.909886	575.101744	6.656026	-0.005916	1.457084
27.968101	577.129488	6.661030	-0.005928	1.459304
28.041678	579.138843	6.666035	-0.005942	1.461506
28.025867	581.148964	6.671040	-0.005940	1.463673
28.162158	583.165231	6.676045	-0.005965	1.465899
28.355135	585.121386	6.681050	-0.006001	1.468077
28.191053	587.231621	6.686054	-0.005972	1.470288
28.287135	589.212485	6.691059	-0.005991	1.472452
28.468839	591.203813	6.696064	-0.006024	1.474654
28.468034	593.261646	6.701069	-0.006025	1.476858
28.497105	595.288495	6.706074	-0.006031	1.479036
28.504607	597.331491	6.711078	-0.006034	1.481221
28.463572	599.356234	6.716083	-0.006027	1.483366
28.555393	601.384083	6.721088	-0.006045	1.485558
28.676856	603.348823	6.726093	-0.006067	1.487691
28.619420	605.434408	6.731098	-0.006058	1.489885
28.692884	607.424598	6.736102	-0.006072	1.492022
28.708463	609.471325	6.741107	-0.006076	1.494195
28.757016	611.495573	6.746112	-0.006086	1.496352
28.885581	613.482896	6.751117	-0.006110	1.498496
29.015139	615.494306	6.756122	-0.006134	1.500662
29.097181	617.467707	6.761126	-0.006150	1.502769
29.035475	619.537163	6.766131	-0.006139	1.504923
29.057942	621.558232	6.771136	-0.006144	1.507052
29.028682	623.612142	6.776141	-0.006140	1.509195
29.207080	625.589097	6.781146	-0.006173	1.511327
29.107890	627.652639	6.786150	-0.006156	1.513449
29.228848	629.658161	6.791155	-0.006179	1.515585
29.486070	631.594424	6.796160	-0.006226	1.517694
29.500081	633.658115	6.801165	-0.006230	1.519847
29.295488	635.743489	6.806170	-0.006194	1.521942
29.447856	637.726005	6.811174	-0.006222	1.524054
29.445163	639.766893	6.816179	-0.006223	1.526168
29.517517	641.762842	6.821184	-0.006237	1.528259
29.464372	643.837237	6.826189	-0.006228	1.530385
29.678068	645.775300	6.831194	-0.006267	1.532460
29.580208	647.866609	6.836198	-0.006251	1.534582
29.477030	649.917300	6.841203	-0.006233	1.536657
29.562164	651.917079	6.846208	-0.006249	1.538743
29.599548	653.944970	6.851213	-0.006257	1.540837
29.624887	655.928316	6.856218	-0.006262	1.542880
29.680451	657.954823	6.861222	-0.006273	1.544974
29.786186	659.929636	6.866227	-0.006293	1.547029
29.782184	661.983675	6.871232	-0.006293	1.549126
29.875825	663.972877	6.876237	-0.006311	1.551186
30.045768	665.949873	6.881242	-0.006343	1.553258
29.950537	668.047768	6.886246	-0.006327	1.555359
30.163910	669.982730	6.891251	-0.006366	1.557397
30.174090	672.043470	6.896256	-0.006369	1.559491
30.251137	674.034530	6.901261	-0.006384	1.561534
30.158851	676.082952	6.906266	-0.006368	1.563575
30.191988	678.129940	6.911270	-0.006375	1.565655
30.313779	680.098160	6.916275	-0.006398	1.567682
30.244232	682.182713	6.921280	-0.006386	1.569759
30.200845	684.200171	6.926285	-0.006379	1.571775
30.341595	686.175499	6.931290	-0.006405	1.573808
30.422032	688.204374	6.936294	-0.006421	1.575871
30.368581	690.240027	6.941299	-0.006412	1.577894
30.382818	692.283971	6.946304	-0.006416	1.579945
30.572575	694.214802	6.951309	-0.006451	1.581939
30.459172	696.295237	6.956314	-0.006431	1.583979
30.512551	698.305440	6.961318	-0.006442	1.586002
30.573600	700.305624	6.966323	-0.006454	1.588015
30.604878	702.344913	6.971328	-0.006460	1.590054
30.640587	704.334224	6.976333	-0.006468	1.592042
30.775347	706.332853	6.981338	-0.006493	1.594070
30.959980	708.310920	6.986342	-0.006527	1.596092
30.857863	710.385143	6.991347	-0.006510	1.598111
31.001460	712.391638	6.996352	-0.006536	1.600142
31.092160	714.366392	7.001357	-0.006554	1.602122
31.096710	716.431455	7.006362	-0.006555	1.604159
31.270395	718.398547	7.011366	-0.006588	1.606154
31.361560	720.417415	7.016371	-0.006605	1.608170
31.275284	722.486013	7.021376	-0.006590	1.610173
31.191211	724.533308	7.026381	-0.006576	1.612154
31.110173	726.599450	7.031386	-0.006562	1.614152
31.394587	728.529217	7.036390	-0.006615	1.616134
31.272428	730.605039	7.041395	-0.006594	1.618123
31.344520	732.626859	7.046400	-0.006607	1.620121
31.365819	734.621237	7.051405	-0.006612	1.622073
31.427451	736.646105	7.056410	-0.006624	1.624065
31.383263	738.672722	7.061414	-0.006617	1.626022
31.621294	740.608855	7.066419	-0.006661	1.627980
31.760799	742.620803	7.071424	-0.006687	1.629978
31.791142	744.610979	7.076429	-0.006694	1.631917
31.758598	746.686228	7.081434	-0.006689	1.633915
31.737994	748.717177	7.086438	-0.006686	1.635872
31.737581	750.745421	7.091443	-0.006687	1.637831
31.708148	752.794051	7.096448	-0.006682	1.639797
31.980593	754.704558	7.101453	-0.006732	1.641725
31.731290	756.825459	7.106458	-0.006688	1.643686
31.808737	758.825363	7.111462	-0.006703	1.645633
31.960600	760.790458	7.116467	-0.006731	1.647568
31.869376	762.877222	7.121472	-0.006716	1.649540
31.976503	764.832024	7.126477	-0.006736	1.651447
31.929812	766.886541	7.131482	-0.006729	1.653397
31.909990	768.918139	7.136486	-0.006726	1.655332
32.043733	770.899730	7.141491	-0.006751	1.657266
32.146742	772.915597	7.146496	-0.006770	1.659220
32.247285	774.865606	7.151501	-0.006790	1.661109
32.193865	776.908828	7.156506	-0.006781	1.663035
32.273160	778.940749	7.161510	-0.006796	1.664990
32.268246	780.940082	7.166515	-0.006796	1.666886
32.295302	782.988092	7.171520	-0.006802	1.668835
32.357861	784.978304	7.176525	-0.006814	1.670739
32.257480	787.035689	7.181530	-0.006797	1.672653
32.408949	789.035306	7.186534	-0.006825	1.674589
32.527582	791.004016	7.191539	-0.006847	1.676484
32.631818	793.022597	7.196544	-0.006867	1.678419
32.617938	795.059479	7.201549	-0.006866	1.680332
32.607742	797.070353	7.206554	-0.006865	1.682219
32.608496	799.112456	7.211558	-0.006866	1.684137
32.547609	801.148582	7.216563	-0.006856	1.686028
32.697866	803.127202	7.221568	-0.006884	1.687929
32.744189	805.146384	7.226573	-0.006893	1.689833
32.897845	807.101395	7.231578	-0.006922	1.691709
32.877041	809.166895	7.236582	-0.006919	1.693631
32.857362	811.208722	7.241587	-0.006916	1.695529
32.809040	813.245415	7.246592	-0.006908	1.697412
33.045853	815.215728	7.251597	-0.006952	1.699319
33.048722	817.198232	7.256602	-0.006953	1.701163
32.880455	819.295652	7.261606	-0.006924	1.703059
33.155669	821.229900	7.266611	-0.006975	1.704938
33.288895	823.191671	7.271616	-0.006999	1.706797
33.195090	825.286297	7.276621	-0.006983	1.708707
33.191652	827.302656	7.281626	-0.006984	1.710570
33.343608	829.271455	7.286630	-0.007012	1.712435
33.505708	831.277897	7.291635	-0.007042	1.714336
33.548910	833.276605	7.296640	-0.007051	1.716191
33.521951	835.342727	7.301645	-0.007047	1.718084
33.560766	837.356138	7.306650	-0.007055	1.719948
33.565794	839.351828	7.311654	-0.007057	1.721782
33.545265	841.408891	7.316659	-0.007054	1.723664
33.524547	843.436539	7.321664	-0.007051	1.725516
33.680211	845.410907	7.326669	-0.007080	1.727371
33.746842	847.437683	7.331674	-0.007093	1.729244
33.658019	849.469839	7.336678	-0.007078	1.731074
33.763724	851.478123	7.341683	-0.007098	1.732939
33.790065	853.497792	7.346688	-0.007104	1.734788
33.880715	855.476684	7.351693	-0.007121	1.736617
33.959899	857.515450	7.356698	-0.007136	1.738496
33.914341	859.529355	7.361702	-0.007129	1.740312
33.904275	861.536164	7.366707	-0.007128	1.742131
33.995865	863.552572	7.371712	-0.007145	1.743987
34.023466	865.549240	7.376717	-0.007151	1.745804
34.097932	867.559590	7.381722	-0.007166	1.747646
34.139182	869.588283	7.386726	-0.007174	1.749492
34.142484	871.582381	7.391731	-0.007175	1.751294
34.045692	873.656203	7.396736	-0.007159	1.753135
34.230644	875.630041	7.401741	-0.007193	1.754969
34.346019	877.624371	7.406746	-0.007215	1.756799
34.311763	879.682173	7.411750	-0.007210	1.758639
34.236982	881.688373	7.416755	-0.007197	1.760419
34.382455	883.666711	7.421760	-0.007224	1.762238
34.358186	885.725975	7.426765	-0.007221	1.764077
34.317836	887.741391	7.431770	-0.007214	1.765870
34.455774	889.728871	7.436774	-0.007240	1.767688
34.441908	891.763937	7.441779	-0.007239	1.769503
34.409921	893.762967	7.446784	-0.007234	1.771278
34.674749	895.728071	7.451789	-0.007282	1.773109
34.577322	897.803485	7.456794	-0.007266	1.774930
34.582899	899.821486	7.461798	-0.007268	1.776727
34.483820	901.879632	7.466803	-0.007251	1.778528
34.755531	903.787056	7.471808	-0.007301	1.780302
34.798932	905.792700	7.476813	-0.007309	1.782095
34.723622	907.874323	7.481818	-0.007297	1.783918
34.753806	909.845557	7.486822	-0.007303	1.785673
34.769438	911.877425	7.491827	-0.007307	1.787475
34.634034	913.949545	7.496832	-0.007283	1.789267
34.935887	915.847663	7.501837	-0.007339	1.791031
34.824461	917.929719	7.506842	-0.007319	1.792835
34.887536	919.940631	7.511846	-0.007332	1.794625
34.849070	921.955128	7.516851	-0.007326	1.796387
34.952224	923.964494	7.521856	-0.007345	1.798184
35.079118	925.930729	7.526861	-0.007369	1.799949
34.970241	927.972611	7.531866	-0.007350	1.801709
35.149618	929.964346	7.536870	-0.007384	1.803507
35.176473	931.965793	7.541875	-0.007389	1.805268
35.221760	933.978310	7.546880	-0.007399	1.807043
35.270266	936.016969	7.551885	-0.007408	1.808839
35.242723	938.022259	7.556890	-0.007404	1.810582
35.269088	940.047170	7.561894	-0.007410	1.812357
35.369424	942.051321	7.566899	-0.007429	1.814133
35.273276	944.104976	7.571904	-0.007412	1.815893
35.301416	946.130425	7.576909	-0.007418	1.817664
35.378371	948.100970	7.581914	-0.007433	1.819398
35.478332	950.068912	7.586918	-0.007452	1.821136
35.531587	952.084958	7.591923	-0.007463	1.822900
35.612086	954.095454	7.596928	-0.007478	1.824665
35.624384	956.114495	7.601933	-0.007481	1.826417
35.737724	958.118670	7.606938	-0.007503	1.828183
35.766638	960.133620	7.611942	-0.007509	1.829932
35.635510	962.196284	7.616947	-0.007486	1.831675
35.745338	964.189935	7.621952	-0.007507	1.833426
35.791734	966.197332	7.626957	-0.007516	1.835169
36.020267	968.153844	7.631962	-0.007558	1.836918
35.767206	970.286285	7.636966	-0.007513	1.838680
35.724231	972.275759	7.641971	-0.007507	1.840378
35.959271	974.226827	7.646976	-0.007550	1.842119
35.776638	976.339154	7.651981	-0.007518	1.843879
36.016166	978.234449	7.656986	-0.007562	1.845570
35.828516	980.337467	7.661990	-0.007529	1.847317
35.986547	982.316419	7.666995	-0.007558	1.849054
35.937829	984.317830	7.672000	-0.007551	1.850751
35.885482	986.390538	7.677005	-0.007542	1.852505
36.177173	988.314841	7.682010	-0.007596	1.854228
36.118541	990.347260	7.687014	-0.007586	1.855943
36.175595	992.363941	7.692019	-0.007597	1.857676
36.046592	994.427423	7.697024	-0.007575	1.859394
36.140382	996.359322	7.702029	-0.007593	1.861062
36.264436	998.380816	7.707034	-0.007616	1.862813
36.247538	1000.393012	7.712038	-0.007614	1.864514
36.322624	1002.391807	7.717043	-0.007628	1.866229
36.269079	1004.442412	7.722048	-0.007619	1.867950
36.339423	1006.436152	7.727053	-0.007633	1.869656
36.390612	1008.426372	7.732058	-0.007643	1.871351
36.371086	1010.487878	7.737062	-0.007641	1.873086
36.381994	1012.477389	7.742067	-0.007643	1.874767
36.578712	1014.456570	7.747072	-0.007680	1.876489
36.540347	1016.499273	7.752077	-0.007674	1.878199
36.519690	1018.512938	7.757082	-0.007671	1.879887
36.676701	1020.465185	7.762086	-0.007700	1.881571
36.647749	1022.539525	7.767091	-0.007696	1.883304
36.593781	1024.540871	7.772096	-0.007687	1.884968
36.664927	1026.552969	7.777101	-0.007701	1.886674
36.738413	1028.568390	7.782106	-0.007715	1.888382
36.753043	1030.550573	7.787110	-0.007719	1.890044
36.817898	1032.564997	7.792115	-0.007731	1.891746
36.810982	1034.618033	7.797120	-0.007731	1.893458
36.986857	1036.564420	7.802125	-0.007764	1.895130
36.895660	1038.637083	7.807130	-0.007748	1.896833
36.897986	1040.666911	7.812134	-0.007749	1.898524
36.879588	1042.612557	7.817139	-0.007747	1.900138
36.953035	1044.637892	7.822144	-0.007761	1.901842
36.966156	1046.687243	7.827149	-0.007764	1.903548
36.933073	1048.663160	7.832154	-0.007759	1.905179
36.963741	1050.707930	7.837158	-0.007766	1.906883
37.096293	1052.695026	7.842163	-0.007791	1.908565
37.132936	1054.663538	7.847168	-0.007798	1.910204
37.100376	1056.731756	7.852173	-0.007793	1.911906
36.992402	1058.778782	7.857178	-0.007775	1.913568
37.169539	1060.709061	7.862182	-0.007807	1.915210
37.214420	1062.753025	7.867187	-0.007816	1.916908
37.268282	1064.753411	7.872192	-0.007827	1.918571
37.376515	1066.711046	7.877197	-0.007848	1.920212
37.333510	1068.775606	7.882202	-0.007841	1.921899
37.455024	1070.760134	7.887206	-0.007864	1.923563
37.489335	1072.777928	7.892211	-0.007871	1.925229
37.608008	1074.776625	7.897216	-0.007893	1.926901
37.620422	1076.809099	7.902221	-0.007896	1.928571
37.518467	1078.841345	7.907226	-0.007879	1.930208
37.417799	1080.906172	7.912230	-0.007861	1.931871
37.629938	1082.854116	7.917235	-0.007901	1.933521
37.630373	1084.873209	7.922240	-0.007902	1.935170
37.755737	1086.877420	7.927245	-0.007925	1.936840
37.678275	1088.930165	7.932250	-0.007912	1.938494
37.661186	1090.918749	7.937254	-0.007910	1.940110
37.783095	1092.925107	7.942259	-0.007933	1.941776
37.874076	1094.917571	7.947264	-0.007950	1.943421
37.978209	1096.867297	7.952269	-0.007970	1.945033
37.932515	1098.939433	7.957274	-0.007963	1.946704
38.076446	1100.924625	7.962278	-0.007989	1.948353
38.187253	1102.875312	7.967283	-0.008010	1.949964
38.310956	1104.896753	7.972288	-0.008034	1.951635
38.237298	1106.968768	7.977293	-0.008021	1.953292
38.226838	1108.951232	7.982298	-0.008020	1.954893
38.289734	1110.985510	7.987302	-0.008032	1.956554
38.285707	1113.022606	7.992307	-0.008033	1.958197
38.469345	1114.934700	7.997312	-0.008067	1.959788
38.323421	1117.032954	8.002317	-0.008041	1.961441
38.446912	1119.032699	8.007322	-0.008065	1.963084
38.570587	1120.985366	8.012326	-0.008088	1.964688
38.446703	1123.068547	8.017331	-0.008066	1.966331
38.290472	1125.144879	8.022336	-0.008039	1.967958
38.600487	1127.022089	8.027341	-0.008096	1.969546
38.630255	1129.057844	8.032346	-0.008102	1.971186
38.674009	1131.084913	8.037350	-0.008111	1.972822
38.667007	1133.105192	8.042355	-0.008111	1.974438
38.778690	1135.101658	8.047360	-0.008132	1.976065
38.697158	1137.156110	8.052365	-0.008118	1.977686
38.864125	1139.089076	8.057370	-0.008149	1.979273
38.794044	1141.130571	8.062374	-0.008137	1.980885
38.894488	1143.148522	8.067379	-0.008156	1.982520
38.947757	1145.132502	8.072384	-0.008167	1.984115
39.050140	1147.117467	8.077389	-0.008186	1.985721
38.979845	1149.184660	8.082394	-0.008174	1.987348
38.925013	1151.216069	8.087398	-0.008165	1.988949
38.968277	1153.208618	8.092403	-0.008174	1.990542
39.100936	1155.199384	8.097408	-0.008199	1.992156
39.102504	1157.221120	8.102413	-0.008200	1.993760
39.160368	1159.207694	8.107418	-0.008212	1.995349
39.096863	1161.270745	8.112422	-0.008201	1.996966
39.070600	1163.292955	8.117427	-0.008197	1.998559
39.010324	1165.293198	8.122432	-0.008187	2.000125
39.286253	1167.243615	8.127437	-0.008238	2.001736
39.304919	1169.267966	8.132442	-0.008242	2.003338
39.485627	1171.211926	8.137446	-0.008276	2.004917
39.338624	1173.322132	8.142451	-0.008250	2.006542
39.525598	1175.287929	8.147456	-0.008285	2.008138
39.504413	1177.275482	8.152461	-0.008282	2.009696
39.366624	1179.367128	8.157466	-0.008258	2.011305
39.361028	1181.409253	8.162470	-0.008258	2.012908
39.462651	1183.361158	8.167475	-0.008277	2.014465
39.438217	1185.397247	8.172480	-0.008273	2.016056
39.504046	1187.422084	8.177485	-0.008286	2.017659
39.536991	1189.362199	8.182490	-0.008293	2.019187
39.605851	1191.370470	8.187494	-0.008306	2.020775
39.626786	1193.390849	8.192499	-0.008311	2.022360
39.582463	1195.404517	8.197504	-0.008304	2.023922
39.773635	1197.366809	8.202509	-0.008340	2.025502
39.863051	1199.387036	8.207514	-0.008357	2.027100
39.779041	1201.430456	8.212518	-0.008342	2.028671
39.941556	1203.402384	8.217523	-0.008373	2.030247
39.851054	1205.461875	8.222528	-0.008357	2.031827
40.097404	1207.413707	8.227533	-0.008403	2.033407
40.042508	1209.437300	8.232538	-0.008394	2.034965
39.948779	1211.514018	8.237542	-0.008377	2.036554
39.910185	1213.542290	8.242547	-0.008371	2.038117
40.132320	1215.442763	8.247552	-0.008412	2.039646
40.220092	1217.471843	8.252557	-0.008429	2.041239
40.318344	1219.487042	8.257562	-0.008448	2.042824
40.248134	1221.486878	8.262566	-0.008436	2.044353
40.210413	1223.538774	8.267571	-0.008430	2.045929
40.256475	1225.565816	8.272576	-0.008439	2.047505
40.499331	1227.487206	8.277581	-0.008484	2.049048
40.388316	1229.557709	8.282586	-0.008465	2.050617
40.582111	1231.538357	8.287590	-0.008501	2.052191
40.658010	1233.530594	8.292595	-0.008516	2.053743
40.707660	1235.548063	8.297600	-0.008525	2.055307
40.638811	1237.610775	8.302605	-0.008514	2.056876
40.680503	1239.590377	8.307610	-0.008522	2.058406
40.539786	1241.624751	8.312614	-0.008498	2.059933
40.511741	1243.677873	8.317619	-0.008494	2.061500
40.544950	1245.670605	8.322624	-0.008501	2.063036
40.632381	1247.622676	8.327629	-0.008517	2.064552
40.686778	1249.647503	8.332634	-0.008528	2.066115
40.844630	1251.634233	8.337638	-0.008557	2.067673
40.720636	1253.652924	8.342643	-0.008536	2.069184
40.804442	1255.677180	8.347648	-0.008552	2.070750
40.774830	1257.719224	8.352653	-0.008548	2.072301
40.775868	1259.719102	8.357658	-0.008549	2.073826
40.873991	1261.705214	8.362662	-0.008567	2.075363
40.908160	1263.740505	8.367667	-0.008574	2.076920
41.092619	1265.671469	8.372672	-0.008609	2.078434
41.103656	1267.688461	8.377677	-0.008611	2.079970
40.987800	1269.764419	8.382682	-0.008591	2.081518
41.239863	1271.708559	8.387686	-0.008638	2.083055
41.045567	1273.765570	8.392691	-0.008604	2.084568
41.066696	1275.819720	8.397696	-0.008608	2.086130
41.236843	1277.792445	8.402701	-0.008640	2.087665
41.312423	1279.730781	8.407706	-0.008655	2.089150
41.266556	1281.799225	8.412710	-0.008647	2.090703
41.405077	1283.794657	8.417715	-0.008673	2.092244
41.308740	1285.832479	8.422720	-0.008657	2.093759
41.443585	1287.824014	8.427725	-0.008682	2.095295
41.604725	1289.807783	8.432730	-0.008712	2.096829
41.503258	1291.834847	8.437734	-0.008695	2.098332
41.544567	1293.811899	8.442739	-0.008703	2.099830
41.606771	1295.839128	8.447744	-0.008715	2.101370
41.605736	1297.868411	8.452749	-0.008716	2.102896
41.696693	1299.842404	8.457754	-0.008733	2.104400
41.653079	1301.895772	8.462758	-0.008726	2.105931
41.772010	1303.877028	8.467763	-0.008749	2.107446
41.834488	1305.825115	8.472768	-0.008761	2.108921
41.823490	1307.888889	8.477773	-0.008760	2.110465
41.781664	1309.930861	8.482778	-0.008753	2.111983
41.979287	1311.879776	8.487782	-0.008790	2.113488
41.936231	1313.925472	8.492787	-0.008783	2.115007
42.020752	1315.937182	8.497792	-0.008799	2.116530
41.894566	1317.979359	8.502797	-0.008777	2.118024
42.026987	1319.931081	8.507802	-0.008802	2.119511
42.072793	1321.958924	8.512806	-0.008811	2.121033
42.081661	1323.981186	8.517811	-0.008814	2.122542
41.925642	1326.009191	8.522816	-0.008786	2.124014
41.988756	1328.024701	8.527821	-0.008799	2.125528
42.141028	1330.008291	8.532826	-0.008827	2.127038
42.068601	1332.003615	8.537830	-0.008815	2.128503
41.999464	1334.046399	8.542835	-0.008803	2.130002
42.143653	1336.042358	8.547840	-0.008830	2.131517
42.198545	1338.035039	8.552845	-0.008841	2.133007
42.263191	1340.035084	8.557850	-0.008854	2.134503
42.248892	1342.088406	8.562855	-0.008852	2.136020
42.356962	1344.062639	8.567859	-0.008872	2.137505
42.460515	1345.982639	8.572864	-0.008892	2.138949
42.451130	1348.047977	8.577869	-0.008891	2.140472
42.303155	1350.132827	8.582874	-0.008865	2.141975
42.523906	1352.034302	8.587879	-0.008906	2.143430
42.576953	1354.047972	8.592883	-0.008917	2.144926
42.634706	1356.096357	8.597888	-0.008928	2.146448
42.659251	1358.090793	8.602893	-0.008933	2.147922
42.761170	1360.071029	8.607898	-0.008953	2.149402
42.826214	1362.099946	8.612903	-0.008965	2.150909
42.589104	1364.193805	8.617907	-0.008923	2.152391
42.804063	1366.128530	8.622912	-0.008963	2.153861
42.745341	1368.182683	8.627917	-0.008953	2.155354
42.840902	1370.192413	8.632922	-0.008972	2.156849
42.872615	1372.153967	8.637927	-0.008978	2.158293
42.910309	1374.154858	8.642931	-0.008986	2.159767
43.050468	1376.167167	8.647936	-0.009012	2.161271
42.958469	1378.210506	8.652941	-0.008996	2.162743
43.079886	1380.169820	8.657946	-0.009019	2.164202
42.914214	1382.261640	8.662951	-0.008990	2.165691
43.028492	1384.248671	8.667955	-0.009012	2.167167
43.099982	1386.190282	8.672960	-0.009026	2.168599
42.997212	1388.261457	8.677965	-0.009008	2.170083
43.055829	1390.282588	8.682970	-0.009019	2.171568
43.231989	1392.240391	8.687975	-0.009052	2.173033
43.278247	1394.239879	8.692979	-0.009061	2.174497
43.246496	1396.308380	8.697984	-0.009057	2.175993
43.226177	1398.321705	8.702989	-0.009054	2.177450
43.587734	1400.169111	8.707994	-0.009120	2.178873
43.498606	1402.248613	8.712999	-0.009105	2.180360
43.465318	1404.328553	8.718003	-0.009100	2.181860
43.614532	1406.243702	8.723008	-0.009128	2.183281
43.435812	1408.329939	8.728013	-0.009096	2.184749
43.535844	1410.332720	8.733018	-0.009115	2.186220
43.620627	1412.332650	8.738023	-0.009131	2.187684
43.573236	1414.325137	8.743027	-0.009124	2.189112
43.557077	1416.374805	8.748032	-0.009122	2.190588
43.795847	1418.344351	8.753037	-0.009166	2.192063
43.797525	1420.318694	8.758042	-0.009167	2.193486
43.807723	1422.354315	8.763047	-0.009170	2.194954
43.894446	1424.391081	8.768051	-0.009186	2.196440
43.804409	1426.379620	8.773056	-0.009171	2.197849
43.908739	1428.354172	8.778061	-0.009191	2.199292
43.886789	1430.419120	8.783066	-0.009188	2.200770
44.129455	1432.371135	8.788071	-0.009232	2.202227
43.971854	1434.391087	8.793075	-0.009205	2.203640
44.140817	1436.412123	8.798080	-0.009236	2.205127
44.139434	1438.451364	8.803085	-0.009237	2.206587
44.172572	1440.410715	8.808090	-0.009244	2.207998
44.265786	1442.418001	8.813095	-0.009262	2.209455
44.202132	1444.470086	8.818099	-0.009251	2.210907
44.054884	1446.527721	8.823104	-0.009225	2.212344
44.287534	1448.455180	8.828109	-0.009268	2.213773
44.193610	1450.516235	8.833114	-0.009252	2.215223
44.256631	1452.556005	8.838119	-0.009264	2.216691
44.240579	1454.476632	8.843123	-0.009262	2.218056
44.271139	1456.479096	8.848128	-0.009269	2.219489
44.188337	1458.552613	8.853133	-0.009255	2.220946
44.418667	1460.490644	8.858138	-0.009297	2.222377
44.369694	1462.504884	8.863143	-0.009289	2.223797
44.372203	1464.560835	8.868147	-0.009291	2.225258
44.465087	1466.552967	8.873152	-0.009308	2.226693
44.496685	1468.516489	8.878157	-0.009315	2.228093
44.532568	1470.535659	8.883162	-0.009322	2.229533
44.245169	1472.662272	8.888167	-0.009271	2.230975
44.544551	1474.575028	8.893171	-0.009326	2.232397
44.451191	1476.612769	8.898176	-0.009310	2.233818
44.515198	1478.624063	8.903181	-0.009323	2.235254
44.537634	1480.638551	8.908186	-0.009328	2.236683
44.555410	1482.575499	8.913191	-0.009332	2.238055
44.635679	1484.589724	8.918195	-0.009347	2.239494
44.663724	1486.615366	8.923200	-0.009353	2.240929
44.870868	1488.594755	8.928205	-0.009392	2.242371
44.922160	1490.564660	8.933210	-0.009402	2.243770
44.983469	1492.630076	8.938215	-0.009414	2.245238
44.872677	1494.683758	8.943219	-0.009395	2.246658
44.910335	1496.645334	8.948224	-0.009402	2.248045
44.992043	1498.641132	8.953229	-0.009418	2.249466
44.974276	1500.679663	8.958234	-0.009416	2.250893
44.864193	1502.746647	8.963239	-0.009397	2.252320
45.044292	1504.679126	8.968243	-0.009430	2.253715
44.971941	1506.754791	8.973248	-0.009418	2.255154
45.136066	1508.719157	8.978253	-0.009449	2.256566
45.055661	1510.717821	8.983258	-0.009435	2.257947
45.081911	1512.729798	8.988263	-0.009441	2.259360
45.180466	1514.730052	8.993267	-0.009459	2.260781
45.270458	1516.703213	8.998272	-0.009477	2.262179
45.273534	1518.703259	9.003277	-0.009478	2.263576
45.453096	1520.686025	9.008282	-0.009511	2.265000
45.470903	1522.728738	9.013287	-0.009515	2.266428
45.479266	1524.707573	9.018291	-0.009518	2.267809
45.501270	1526.722571	9.023296	-0.009523	2.269217
45.380705	1528.824187	9.028301	-0.009502	2.270654
45.514266	1530.775778	9.033306	-0.009527	2.272041
45.566767	1532.772807	9.038311	-0.009537	2.273441
45.674782	1534.763030	9.043315	-0.009558	2.274847
45.726453	1536.816827	9.048320	-0.009568	2.276285
45.612098	1538.799286	9.053325	-0.009548	2.277635
45.720068	1540.812879	9.058330	-0.009569	2.279055
45.569269	1542.861028	9.063335	-0.009542	2.280442
45.502085	1544.912468	9.068339	-0.009531	2.281848
45.709698	1546.799623	9.073344	-0.009569	2.283200
45.815237	1548.832339	9.078349	-0.009589	2.284629
45.713016	1550.884078	9.083354	-0.009572	2.286026
45.874876	1552.829501	9.088359	-0.009602	2.287405
45.867611	1554.834800	9.093363	-0.009602	2.288788
45.749295	1556.931268	9.098368	-0.009581	2.290209
45.869144	1558.911712	9.103373	-0.009604	2.291601
45.879799	1560.880822	9.108378	-0.009607	2.292961
45.992544	1562.885905	9.113383	-0.009628	2.294367
46.165433	1564.881281	9.118387	-0.009660	2.295778
45.962238	1566.921923	9.123392	-0.009624	2.297138
46.134321	1568.838471	9.128397	-0.009656	2.298493
46.087321	1570.918051	9.133402	-0.009649	2.299912
46.221518	1572.910790	9.138407	-0.009674	2.301309
46.358565	1574.853803	9.143411	-0.009699	2.302673
46.168075	1576.955119	9.148416	-0.009666	2.304073
46.329729	1578.936560	9.153421	-0.009696	2.305466
46.454204	1580.909942	9.158426	-0.009719	2.306845
46.377402	1582.936565	9.163431	-0.009706	2.308216
46.529668	1584.920077	9.168435	-0.009735	2.309606
46.458227	1586.982367	9.173440	-0.009723	2.311001
46.571930	1588.960109	9.178445	-0.009744	2.312378
46.524677	1590.990262	9.183450	-0.009737	2.313754
46.611837	1593.029557	9.188455	-0.009753	2.315165
46.589916	1595.018466	9.193459	-0.009750	2.316517
46.653699	1596.975002	9.198464	-0.009763	2.317865
46.700559	1598.983627	9.203469	-0.009772	2.319244
46.801985	1601.008699	9.208474	-0.009791	2.320645
46.703673	1603.042097	9.213479	-0.009774	2.322008
46.855714	1605.001395	9.218483	-0.009803	2.323373
46.586626	1607.136177	9.223488	-0.009755	2.324767
46.730354	1609.093117	9.228493	-0.009782	2.326127
46.675044	1611.066214	9.233498	-0.009773	2.327455
46.762207	1613.085112	9.238503	-0.009789	2.328844
46.883578	1615.056745	9.243507	-0.009812	2.330207
46.985284	1617.088049	9.248512	-0.009832	2.331606
46.973227	1619.066741	9.253517	-0.009830	2.332944
47.027552	1621.116473	9.258522	-0.009841	2.334343
47.015805	1623.152576	9.263527	-0.009840	2.335718
46.915583	1625.145022	9.268531	-0.009823	2.337044
47.098302	1627.074296	9.273536	-0.009857	2.338387
47.237457	1629.085672	9.278541	-0.009883	2.339775
47.137653	1631.149900	9.283546	-0.009865	2.341147
47.200693	1633.106707	9.288551	-0.009878	2.342481
47.270665	1635.104651	9.293555	-0.009891	2.343843
47.214373	1637.182444	9.298560	-0.009882	2.345231
47.321488	1639.150045	9.303565	-0.009902	2.346579
47.293409	1641.132057	9.308570	-0.009898	2.347907
47.313256	1643.170342	9.313575	-0.009903	2.349283
47.262150	1645.214806	9.318579	-0.009894	2.350647
47.367330	1647.177427	9.323584	-0.009914	2.351987
47.369595	1649.221278	9.328589	-0.009916	2.353361
47.469783	1651.195229	9.333594	-0.009935	2.354706
47.393996	1653.258841	9.338599	-0.009922	2.356075
47.463818	1655.188667	9.343603	-0.009935	2.357383
47.777110	1657.128210	9.348608	-0.009993	2.358748
47.733349	1659.193732	9.353613	-0.009986	2.360122
47.629909	1661.255961	9.358618	-0.009968	2.361481
47.577001	1663.228130	9.363623	-0.009959	2.362789
47.757766	1665.237141	9.368627	-0.009993	2.364170
47.779960	1667.265046	9.373632	-0.009998	2.365529
47.900459	1669.211980	9.378637	-0.010020	2.366854
47.848384	1671.235637	9.383642	-0.010012	2.368194
47.981563	1673.253489	9.388647	-0.010037	2.369567
47.996655	1675.271866	9.393651	-0.010041	2.370916
48.037252	1677.270077	9.398656	-0.010049	2.372256
48.103407	1679.275776	9.403661	-0.010062	2.373605
48.106440	1681.308648	9.408666	-0.010063	2.374958
48.213508	1683.302744	9.413671	-0.010083	2.376307
48.355112	1685.215315	9.418675	-0.010110	2.377607
48.402278	1687.248702	9.423680	-0.010119	2.378968
48.355794	1689.337144	9.428685	-0.010112	2.380345
48.350365	1691.327112	9.433690	-0.010112	2.381664
48.469536	1693.285748	9.438695	-0.010134	2.382988
48.497153	1695.330817	9.443699	-0.010140	2.384349
48.548659	1697.349579	9.448704	-0.010150	2.385697
48.650194	1699.285489	9.453709	-0.010170	2.387000
48.696383	1701.316210	9.458714	-0.010179	2.388353
48.605932	1703.394623	9.463719	-0.010163	2.389709
48.742537	1705.388905	9.468723	-0.010189	2.391055
48.663501	1707.375023	9.473728	-0.010176	2.392351
48.804579	1709.398108	9.478733	-0.010202	2.393715
48.850364	1711.398976	9.483738	-0.010211	2.395045
48.852085	1713.409930	9.488743	-0.010212	2.396371
48.810257	1715.384333	9.493747	-0.010206	2.397664
48.838098	1717.441310	9.498752	-0.010212	2.399025
48.879075	1719.448631	9.503757	-0.010220	2.400355
48.984446	1721.406915	9.508762	-0.010240	2.401665
48.919194	1723.427377	9.513767	-0.010229	2.402981
48.995761	1725.461216	9.518771	-0.010244	2.404333
48.974990	1727.487919	9.523776	-0.010241	2.405660
49.003917	1729.447002	9.528781	-0.010247	2.406952
49.077810	1731.443900	9.533786	-0.010261	2.408278
49.245054	1733.447247	9.538791	-0.010292	2.409626
49.110248	1735.510701	9.543795	-0.010269	2.410951
49.285263	1737.462185	9.548800	-0.010301	2.412265
49.221938	1739.517598	9.553805	-0.010291	2.413598
49.422583	1741.496306	9.558810	-0.010328	2.414933
49.325035	1743.514900	9.563815	-0.010311	2.416234
49.447949	1745.448503	9.568819	-0.010334	2.417523
49.541226	1747.466493	9.573824	-0.010352	2.418860
49.455811	1749.541739	9.578829	-0.010338	2.420198
49.511474	1751.501842	9.583834	-0.010349	2.421488
49.559762	1753.476550	9.588839	-0.010358	2.422786
49.560104	1755.547473	9.593843	-0.010359	2.424136
49.579049	1757.581415	9.598848	-0.010364	2.425465
49.781508	1759.479736	9.603853	-0.010401	2.426742
49.622556	1761.544098	9.608858	-0.010373	2.428054
49.699879	1763.550056	9.613863	-0.010388	2.429374
49.717232	1765.611983	9.618867	-0.010392	2.430718
49.805674	1767.551340	9.623872	-0.010409	2.431996
49.795679	1769.593178	9.628877	-0.010408	2.433321
49.785562	1771.608002	9.633882	-0.010407	2.434626
49.833400	1773.619458	9.638887	-0.010417	2.435941
49.797058	1775.579986	9.643891	-0.010411	2.437205
50.080311	1777.553562	9.648896	-0.010463	2.438541
50.014274	1779.604001	9.653901	-0.010452	2.439855
50.017931	1781.618049	9.658906	-0.010454	2.441160
50.077409	1783.587181	9.663911	-0.010465	2.442446
50.040585	1785.654062	9.668915	-0.010460	2.443775
50.121083	1787.653161	9.673920	-0.010475	2.445083
50.138921	1789.643934	9.678925	-0.010479	2.446373
50.077046	1791.642970	9.683930	-0.010469	2.447651
50.232946	1793.647423	9.688935	-0.010498	2.448975
50.133577	1795.720468	9.693939	-0.010481	2.450293
50.331780	1797.655919	9.698944	-0.010518	2.451580
50.515371	1799.611016	9.703949	-0.010552	2.452876
50.534874	1801.676334	9.708954	-0.010556	2.454210
50.639466	1803.670387	9.713959	-0.010576	2.455514
50.672947	1805.618007	9.718963	-0.010583	2.456773
50.755266	1807.618882	9.723968	-0.010599	2.458076
50.754693	1809.671218	9.728973	-0.010600	2.459394
50.755494	1811.688227	9.733978	-0.010601	2.460690
50.801366	1813.660021	9.738983	-0.010610	2.461964
50.803433	1815.710411	9.743987	-0.010611	2.463280
50.953247	1817.725842	9.748992	-0.010639	2.464602
50.913330	1819.740916	9.753997	-0.010633	2.465885
50.942545	1821.718888	9.759002	-0.010639	2.467158
50.911230	1823.752910	9.764007	-0.010634	2.468454
50.940994	1825.796763	9.769011	-0.010640	2.469768
50.907221	1827.804120	9.774016	-0.010635	2.471045
51.071831	1829.755790	9.779021	-0.010666	2.472325
50.935195	1831.819893	9.784026	-0.010642	2.473616
51.050700	1833.826717	9.789031	-0.010664	2.474920
51.012241	1835.781908	9.794035	-0.010658	2.476161
51.120306	1837.751744	9.799040	-0.010678	2.477438
51.113774	1839.791722	9.804045	-0.010678	2.478738
51.161195	1841.813710	9.809050	-0.010687	2.480035
51.222302	1843.791344	9.814055	-0.010699	2.481307
51.374897	1845.777940	9.819059	-0.010728	2.482601
51.311639	1847.832508	9.824064	-0.010717	2.483896
51.363703	1849.869123	9.829069	-0.010728	2.485201
51.418409	1851.798578	9.834074	-0.010738	2.486438
51.541682	1853.802374	9.839079	-0.010762	2.487735
51.456234	1855.861081	9.844083	-0.010747	2.489025
51.729816	1857.835586	9.849088	-0.010797	2.490331
51.632293	1859.856771	9.854093	-0.010781	2.491594
51.865647	1861.823370	9.859098	-0.010824	2.492886
51.676481	1863.919882	9.864103	-0.010791	2.494178
51.769663	1865.925514	9.869107	-0.010808	2.495466
51.806261	1867.846153	9.874112	-0.010816	2.496688
51.817026	1869.882865	9.879117	-0.010819	2.497979
51.767294	1871.902638	9.884122	-0.010811	2.499246
51.925905	1873.896792	9.889127	-0.010840	2.500537
51.936287	1875.858364	9.894131	-0.010843	2.501778
51.935784	1877.919286	9.899136	-0.010844	2.503079
51.950476	1879.942447	9.904141	-0.010847	2.504359
52.068290	1881.931292	9.909146	-0.010869	2.505636
52.035364	1883.904466	9.914151	-0.010864	2.506873
52.104925	1885.927768	9.919155	-0.010878	2.508161
52.140562	1887.939209	9.924160	-0.010885	2.509435
52.176937	1889.960889	9.929165	-0.010893	2.510714
52.118279	1891.962076	9.934170	-0.010883	2.511962
52.122478	1894.013809	9.939175	-0.010885	2.513252
52.325885	1895.947120	9.944179	-0.010922	2.514506
52.261120	1897.992975	9.949184	-0.010912	2.515779
52.256540	1899.941523	9.954189	-0.010912	2.517001
52.402618	1901.967868	9.959194	-0.010939	2.518301
52.363009	1904.001100	9.964199	-0.010933	2.519568
52.430925	1905.993695	9.969203	-0.010946	2.520831
52.387695	1907.993907	9.974208	-0.010939	2.522075
52.569638	1910.006748	9.979213	-0.010973	2.523371
52.582863	1912.021391	9.984218	-0.010976	2.524634
52.554330	1914.022104	9.989223	-0.010972	2.525880
52.531287	1916.001880	9.994227	-0.010968	2.527114
52.561757	1918.065243	9.999232	-0.010975	2.528409
52.626991	1920.049253	10.004237	-0.010988	2.529661
52.720896	1922.052270	10.009242	-0.011005	2.530929
52.610038	1924.075368	10.014247	-0.010986	2.532171
52.749500	1926.091531	10.019251	-0.011012	2.533455
52.707518	1928.120362	10.024256	-0.011006	2.534712
52.889250	1930.025394	10.029261	-0.011039	2.535933
52.833557	1932.024267	10.034266	-0.011030	2.537168
53.154174	1933.983156	10.039271	-0.011089	2.538448
53.092926	1936.054004	10.044275	-0.011079	2.539725
53.087731	1938.078105	10.049280	-0.011079	2.540982
53.088101	1940.063553	10.054285	-0.011080	2.542216
53.088825	1942.127064	10.059290	-0.011081	2.543498
53.108857	1944.144709	10.064295	-0.011085	2.544755
53.079389	1946.126357	10.069299	-0.011081	2.545979
53.179813	1948.099530	10.074304	-0.011100	2.547222
53.261851	1950.139023	10.079309	-0.011116	2.548502
53.386324	1952.130310	10.084314	-0.011139	2.549760
53.361080	1954.138774	10.089319	-0.011136	2.550999
53.485485	1956.103068	10.094323	-0.011159	2.552239
53.488846	1958.156011	10.099328	-0.011160	2.553510
53.330014	1960.224324	10.104333	-0.011133	2.554759
53.267059	1962.209032	10.109338	-0.011122	2.555974
53.222526	1964.196639	10.114343	-0.011115	2.557194
53.310749	1966.214290	10.119347	-0.011132	2.558457
53.583098	1968.155842	10.124352	-0.011182	2.559706
53.475105	1970.212523	10.129357	-0.011163	2.560955
53.456338	1972.196133	10.134362	-0.011161	2.562175
53.490833	1974.253933	10.139367	-0.011168	2.563450
53.687844	1976.198607	10.144371	-0.011205	2.564685
53.654748	1978.202156	10.149376	-0.011199	2.565912
53.780389	1980.163406	10.154381	-0.011223	2.567143
53.825237	1982.219297	10.159386	-0.011232	2.568416
53.770813	1984.244184	10.164391	-0.011223	2.569651
53.766272	1986.269341	10.169395	-0.011223	2.570895
53.826736	1988.236280	10.174400	-0.011235	2.572114
53.690838	1990.324715	10.179405	-0.011211	2.573371
53.725890	1992.261332	10.184410	-0.011219	2.574566
53.767318	1993.844704	10.189415	-0.011227	2.575546

53.799600	1994.963753	10.194419	-0.011234	2.576238
53.828987	1995.870215	10.199424	-0.011240	2.576800
53.980079	1996.431778	10.204429	-0.011268	2.577173
53.959747	1996.921947	10.209434	-0.011265	2.577470
53.868242	1997.198304	10.214439	-0.011249	2.577623
54.062105	1997.615278	10.219443	-0.011285	2.577915
53.960077	1997.698087	10.224448	-0.011267	2.577948
54.118114	1997.662320	10.229453	-0.011297	2.577956
54.004629	1998.168211	10.234458	-0.011277	2.578245
54.146682	1998.138836	10.239463	-0.011303	2.578255
54.113571	1998.128807	10.244467	-0.011298	2.578243
54.176802	1998.135378	10.249472	-0.011310	2.578260
54.213980	1998.094292	10.254477	-0.011318	2.578242
54.310208	1998.077320	10.259482	-0.011336	2.578250
54.170876	1998.117684	10.264487	-0.011311	2.578250
54.264354	1998.106646	10.269491	-0.011329	2.578261
54.241573	1998.084809	10.274496	-0.011326	2.578245
54.339579	1998.073414	10.279501	-0.011344	2.578257
54.206979	1998.275148	10.284506	-0.011321	2.578356
54.303955	1998.303074	10.289511	-0.011339	2.578392
54.225982	1998.290366	10.294515	-0.011326	2.578370
54.314240	1998.301822	10.299520	-0.011342	2.578395
54.363099	1998.276561	10.304525	-0.011352	2.578389
54.286927	1998.239085	10.309530	-0.011339	2.578353
54.321882	1998.274904	10.314535	-0.011346	2.578382
54.486321	1998.285126	10.319539	-0.011376	2.578419
54.397020	1998.283765	10.324544	-0.011361	2.578403
54.471613	1998.322832	10.329549	-0.011375	2.578441
54.425876	1998.253921	10.334554	-0.011368	2.578391
54.464095	1998.283140	10.339559	-0.011375	2.578417
54.327212	1998.296244	10.344563	-0.011351	2.578400
54.540612	1998.314019	10.349568	-0.011391	2.578452
54.541069	1998.282055	10.354573	-0.011391	2.578433
54.571302	1998.288207	10.359578	-0.011398	2.578443
54.513773	1998.268007	10.364583	-0.011388	2.578421
54.589922	1998.284166	10.369587	-0.011402	2.578446
54.560277	1998.307501	10.374592	-0.011398	2.578455
54.555279	1998.281785	10.379597	-0.011398	2.578439
54.466680	1998.280464	10.384602	-0.011382	2.578423
54.487077	1998.292155	10.389607	-0.011387	2.578434
54.536910	1998.278071	10.394611	-0.011396	2.578436
54.529867	1998.281277	10.399616	-0.011396	2.578437
54.565676	1998.309189	10.404621	-0.011403	2.578462
54.762961	1998.314784	10.409626	-0.011440	2.578503
54.606282	1998.265065	10.414631	-0.011412	2.578444
54.690118	1998.264609	10.419635	-0.011428	2.578460
54.630250	1998.310645	10.424640	-0.011418	2.578478
54.571899	1998.261630	10.429645	-0.011408	2.578438
54.516231	1998.302309	10.434650	-0.011399	2.578453
54.733355	1998.292439	10.439655	-0.011439	2.578488
54.601530	1998.313182	10.444659	-0.011415	2.578477
54.619113	1998.282896	10.449664	-0.011419	2.578462
54.715791	1998.283636	10.454669	-0.011438	2.578482
54.757727	1998.286230	10.459674	-0.011446	2.578492
54.904845	1998.249710	10.464679	-0.011473	2.578498
54.801207	1998.256274	10.469683	-0.011455	2.578483
54.751326	1998.316867	10.474688	-0.011447	2.578512
54.707579	1998.278454	10.479693	-0.011440	2.578481
54.836322	1998.285254	10.484698	-0.011464	2.578510
54.650612	1998.305805	10.489703	-0.011431	2.578488
54.880027	1998.290925	10.494707	-0.011473	2.578523
54.826634	1998.288844	10.499712	-0.011464	2.578512
54.689321	1998.282699	10.504717	-0.011440	2.578484
54.757739	1998.309369	10.509722	-0.011453	2.578513
54.706705	1998.284134	10.514727	-0.011445	2.578489
54.861347	1998.260624	10.519731	-0.011473	2.578504
54.824410	1998.306063	10.524736	-0.011467	2.578526
54.865786	1998.321832	10.529741	-0.011476	2.578544
54.952631	1998.296496	10.534746	-0.011492	2.578546
55.005400	1998.278969	10.539751	-0.011502	2.578545
54.821771	1998.295827	10.544755	-0.011470	2.578522
54.987989	1998.266759	10.549760	-0.011501	2.578536
54.809381	1998.297899	10.554765	-0.011469	2.578523
54.850048	1998.313373	10.559770	-0.011477	2.578541
54.718417	1998.294792	10.564775	-0.011454	2.578506
54.877245	1998.297036	10.569779	-0.011484	2.578537
54.806414	1998.281389	10.574784	-0.011471	2.578515
54.873983	1998.290469	10.579789	-0.011484	2.578534
54.824215	1998.282952	10.584794	-0.011476	2.578521
54.888499	1998.274418	10.589799	-0.011489	2.578528
54.725956	1998.310873	10.594803	-0.011460	2.578521
54.852402	1998.279363	10.599808	-0.011483	2.578526
54.916019	1998.295763	10.604813	-0.011496	2.578549
54.987312	1998.292238	10.609818	-0.011509	2.578561
54.996185	1998.260265	10.614823	-0.011512	2.578544
54.980036	1998.283067	10.619827	-0.011509	2.578555
54.875177	1998.302750	10.624832	-0.011491	2.578549
54.946843	1998.295797	10.629837	-0.011505	2.578558
54.884253	1998.290138	10.634842	-0.011494	2.578544
54.848564	1998.322195	10.639847	-0.011489	2.578558
54.906961	1998.248139	10.644851	-0.011500	2.578524
54.851546	1998.325203	10.649856	-0.011491	2.578562
54.867250	1998.301096	10.654861	-0.011494	2.578551
54.844396	1998.275708	10.659866	-0.011491	2.578532
54.639751	1998.283403	10.664871	-0.011455	2.578499
54.726755	1998.291674	10.669875	-0.011471	2.578521
54.889644	1998.297529	10.674880	-0.011501	2.578556
54.945345	1998.273757	10.679885	-0.011512	2.578552
54.855216	1998.295081	10.684890	-0.011496	2.578549
54.901514	1998.290741	10.689895	-0.011505	2.578556
54.857120	1998.293573	10.694899	-0.011498	2.578550
54.760837	1998.274444	10.699904	-0.011482	2.578521
54.733047	1998.283192	10.704909	-0.011477	2.578522
54.799529	1998.294133	10.709914	-0.011490	2.578542
54.810966	1998.260870	10.714919	-0.011493	2.578525
54.994206	1998.268442	10.719923	-0.011527	2.578564
54.879631	1998.284960	10.724928	-0.011507	2.578554
54.924838	1998.291405	10.729933	-0.011516	2.578567
54.899513	1998.282321	10.734938	-0.011512	2.578557
54.945559	1998.285197	10.739943	-0.011521	2.578568
54.896182	1998.293113	10.744947	-0.011513	2.578565
54.874610	1998.296146	10.749952	-0.011509	2.578563
54.820597	1998.306237	10.754957	-0.011500	2.578560
54.880452	1998.259529	10.759962	-0.011512	2.578543
54.934202	1998.279695	10.764967	-0.011522	2.578567
54.930933	1998.293228	10.769971	-0.011523	2.578575
55.041679	1998.227735	10.774976	-0.011543	2.578556
54.944364	1998.275977	10.779981	-0.011526	2.578568
54.984680	1998.249487	10.784986	-0.011534	2.578560
55.231950	1998.194251	10.789991	-0.011580	2.578573
55.102218	1998.212571	10.794995	-0.011557	2.578561
55.127739	1998.207408	10.800000	-0.011562	2.578564
54.937213	1998.252114	10.805005	-0.011529	2.578556
54.940250	1998.260925	10.810010	-0.011530	2.578563
54.892864	1998.254213	10.815015	-0.011522	2.578551
55.023548	1998.235437	10.820019	-0.011547	2.578564
55.032661	1998.223533	10.825024	-0.011549	2.578560
54.993237	1998.248312	10.830029	-0.011543	2.578568
54.976036	1998.240327	10.835034	-0.011540	2.578561
54.968389	1998.251621	10.840039	-0.011540	2.578567
54.834066	1998.274397	10.845043	-0.011516	2.578557
55.006418	1998.231992	10.850048	-0.011548	2.578564
55.001815	1998.213038	10.855053	-0.011548	2.578552
54.905441	1998.256660	10.860058	-0.011531	2.578561
55.033507	1998.209104	10.865063	-0.011555	2.578557
54.985045	1998.237905	10.870067	-0.011547	2.578566
55.082240	1998.187240	10.875072	-0.011565	2.578554
55.081899	1998.202687	10.880077	-0.011566	2.578564
54.964880	1998.220457	10.885082	-0.011545	2.578554
55.023093	1998.208415	10.890087	-0.011557	2.578558
54.899504	1998.220279	10.895091	-0.011535	2.578543
55.032526	1998.210227	10.900096	-0.011560	2.578563
54.994593	1998.208291	10.905101	-0.011554	2.578555
54.945994	1998.241213	10.910106	-0.011546	2.578567
54.932045	1998.221786	10.915111	-0.011544	2.578553
55.032520	1998.212195	10.920115	-0.011563	2.578567
54.965774	1998.233040	10.925120	-0.011551	2.578568
54.867219	1998.320925	10.930125	-0.011534	2.578604
54.804957	1998.235869	10.935130	-0.011524	2.578541
54.872757	1998.312958	10.940135	-0.011537	2.578602
54.809686	1998.296479	10.945139	-0.011526	2.578581
54.802346	1998.301051	10.950144	-0.011526	2.578583
54.789102	1998.260247	10.955149	-0.011524	2.578556
55.090376	1998.307668	10.960154	-0.011579	2.578642
55.092175	1998.250816	10.965159	-0.011580	2.578608
55.102822	1998.289951	10.970163	-0.011583	2.578635
55.050783	1998.306581	10.975168	-0.011574	2.578636
55.018171	1998.309655	10.980173	-0.011569	2.578633
55.127024	1998.264370	10.985178	-0.011589	2.578626
55.152048	1998.283072	10.990183	-0.011595	2.578643
55.143696	1998.270612	10.995187	-0.011594	2.578635
55.121133	1998.287205	11.000192	-0.011591	2.578641
55.050811	1998.279305	11.005197	-0.011579	2.578624
54.871417	1998.315527	11.010202	-0.011547	2.578614
54.908353	1998.260233	11.015207	-0.011554	2.578587
54.962617	1998.291717	11.020211	-0.011565	2.578618
54.895510	1998.305023	11.025216	-0.011553	2.578614
54.734501	1998.278032	11.030221	-0.011525	2.578568
54.774860	1998.277282	11.035226	-0.011533	2.578576
54.742271	1998.273210	11.040231	-0.011528	2.578568
54.884208	1998.290791	11.045235	-0.011554	2.578606
54.998525	1998.306570	11.050240	-0.011576	2.578638
54.937167	1998.251834	11.055245	-0.011565	2.578594
54.866093	1998.278330	11.060250	-0.011553	2.578597
54.958264	1998.318945	11.065255	-0.011571	2.578640
54.938847	1998.247379	11.070259	-0.011568	2.578594
54.847138	1998.298761	11.075264	-0.011552	2.578609
54.902693	1998.270699	11.080269	-0.011563	2.578603
54.946551	1998.288519	11.085274	-0.011571	2.578622
54.975352	1998.268590	11.090279	-0.011577	2.578616
54.804089	1998.320188	11.095283	-0.011547	2.578617
54.863630	1998.253432	11.100288	-0.011559	2.578588
54.831577	1998.273421	11.105293	-0.011554	2.578595
54.816311	1998.271222	11.110298	-0.011552	2.578591
54.825479	1998.268990	11.115303	-0.011554	2.578592
54.871477	1998.300183	11.120307	-0.011563	2.578621
54.817203	1998.263182	11.125312	-0.011554	2.578589
55.072329	1998.289957	11.130317	-0.011601	2.578653
54.885877	1998.282682	11.135322	-0.011568	2.578615
54.854535	1998.283841	11.140327	-0.011563	2.578611
55.016837	1998.273304	11.145331	-0.011593	2.578635
54.842643	1998.273012	11.150336	-0.011562	2.578603
55.018324	1998.312975	11.155341	-0.011595	2.578661
55.043890	1998.269550	11.160346	-0.011600	2.578640
54.964516	1998.267972	11.165351	-0.011586	2.578625
55.114926	1998.290118	11.170355	-0.011614	2.578668
55.024501	1998.281954	11.175360	-0.011599	2.578646
55.003700	1998.281693	11.180365	-0.011596	2.578643
55.022808	1998.308823	11.185370	-0.011600	2.578664
55.001361	1998.291419	11.190375	-0.011597	2.578650
54.874378	1998.290290	11.195379	-0.011574	2.578627
54.963794	1998.264428	11.200384	-0.011591	2.578628
54.842056	1998.258899	11.205389	-0.011570	2.578603
54.977102	1998.306879	11.210394	-0.011595	2.578658
54.915050	1998.263062	11.215399	-0.011585	2.578621
54.954718	1998.307909	11.220403	-0.011593	2.578656
55.039417	1998.254924	11.225408	-0.011609	2.578640
55.078305	1998.280120	11.230413	-0.011616	2.578664
54.887669	1998.287120	11.235418	-0.011583	2.578633
55.045941	1998.266845	11.240423	-0.011612	2.578651
54.953003	1998.292848	11.245427	-0.011596	2.578650
54.963090	1998.245460	11.250432	-0.011598	2.578624
55.022080	1998.301007	11.255437	-0.011610	2.578670
55.063245	1998.322452	11.260442	-0.011618	2.578691
55.077152	1998.260643	11.265447	-0.011621	2.578657
55.097228	1998.282633	11.270451	-0.011626	2.578675
55.094827	1998.315027	11.275456	-0.011626	2.578695
55.098172	1998.298501	11.280461	-0.011627	2.578686
55.126442	1998.287657	11.285466	-0.011633	2.578685
54.942086	1998.259346	11.290471	-0.011601	2.578635
54.944644	1998.308335	11.295475	-0.011602	2.578666
55.056001	1998.289572	11.300480	-0.011623	2.578676
54.954529	1998.254424	11.305485	-0.011605	2.578636
54.948344	1998.325705	11.310490	-0.011605	2.578679
55.044633	1998.250071	11.315495	-0.011623	2.578652
55.048228	1998.291606	11.320499	-0.011624	2.578679
54.927726	1998.254083	11.325504	-0.011603	2.578634
55.064473	1998.315062	11.330509	-0.011629	2.578698
55.083718	1998.253924	11.335514	-0.011633	2.578664
55.005634	1998.276942	11.340519	-0.011619	2.578665
54.933338	1998.277546	11.345523	-0.011607	2.578652
55.020862	1998.298412	11.350528	-0.011624	2.578682
55.073470	1998.309238	11.355533	-0.011634	2.578699
55.095219	1998.246575	11.360538	-0.011638	2.578666
55.056804	1998.290426	11.365543	-0.011632	2.578686
55.153360	1998.293248	11.370547	-0.011650	2.578707
55.063267	1998.310736	11.375552	-0.011635	2.578701
55.121720	1998.260883	11.380557	-0.011646	2.578683
55.053128	1998.303964	11.385562	-0.011635	2.578697
55.167904	1998.248719	11.390567	-0.011656	2.578685
55.172764	1998.281965	11.395571	-0.011658	2.578707
55.030458	1998.319151	11.400576	-0.011633	2.578704
54.992608	1998.297043	11.405581	-0.011626	2.578684
55.167744	1998.275977	11.410586	-0.011659	2.578705
55.069827	1998.283859	11.415591	-0.011642	2.578692
55.004493	1998.274187	11.420595	-0.011631	2.578675
55.115294	1998.304552	11.425600	-0.011652	2.578715
55.066568	1998.291870	11.430605	-0.011644	2.578699
55.011029	1998.303189	11.435610	-0.011634	2.578696
54.891004	1998.258891	11.440615	-0.011613	2.578647
54.967053	1998.301094	11.445619	-0.011628	2.578688
54.932591	1998.292236	11.450624	-0.011622	2.578677
54.997051	1998.310424	11.455629	-0.011635	2.578701
55.072834	1998.274683	11.460634	-0.011649	2.578694
54.997770	1998.247824	11.465639	-0.011636	2.578664
55.123328	1998.308892	11.470643	-0.011660	2.578726
55.096746	1998.275964	11.475648	-0.011656	2.578701
55.103723	1998.314687	11.480653	-0.011658	2.578727
55.246690	1998.278666	11.485658	-0.011684	2.578732
55.035744	1998.268380	11.490663	-0.011647	2.578688
55.211157	1998.274004	11.495667	-0.011679	2.578725
55.065769	1998.321561	11.500672	-0.011654	2.578727
55.156808	1998.259762	11.505677	-0.011671	2.578707
55.054088	1998.292818	11.510682	-0.011653	2.578709
55.191206	1998.283310	11.515687	-0.011678	2.578730
55.304502	1998.274923	11.520691	-0.011700	2.578746
55.215416	1998.275531	11.525696	-0.011684	2.578731
55.216294	1998.281684	11.530701	-0.011685	2.578735
55.099739	1998.262592	11.535706	-0.011665	2.578703
55.095656	1998.285298	11.540711	-0.011665	2.578717
55.208681	1998.308104	11.545715	-0.011686	2.578752
55.057079	1998.309865	11.550720	-0.011659	2.578726
55.142303	1998.270998	11.555725	-0.011675	2.578719
55.329419	1998.246036	11.560730	-0.011710	2.578739
55.144643	1998.334126	11.565735	-0.011677	2.578759
55.149260	1998.281259	11.570739	-0.011679	2.578729
55.231410	1998.266276	11.575744	-0.011695	2.578736
55.241181	1998.302111	11.580749	-0.011697	2.578760
55.095741	1998.287464	11.585754	-0.011671	2.578725
55.226492	1998.270712	11.590759	-0.011696	2.578740
55.243411	1998.304373	11.595763	-0.011700	2.578764
55.364578	1998.306090	11.600768	-0.011722	2.578789
55.183626	1998.255574	11.605773	-0.011690	2.578725
55.233769	1998.311265	11.610778	-0.011700	2.578769
55.111339	1998.313338	11.615783	-0.011679	2.578748
55.316253	1998.267922	11.620787	-0.011716	2.578759
55.294841	1998.319101	11.625792	-0.011713	2.578787
55.178428	1998.284410	11.630797	-0.011693	2.578745
55.117641	1998.276415	11.635802	-0.011683	2.578730
55.132285	1998.310002	11.640807	-0.011686	2.578754
55.095788	1998.253059	11.645811	-0.011680	2.578713
55.275786	1998.281770	11.650816	-0.011713	2.578765
55.238760	1998.328771	11.655821	-0.011708	2.578787
55.213076	1998.237684	11.660826	-0.011704	2.578727
55.243658	1998.319467	11.665831	-0.011710	2.578784
55.253272	1998.289050	11.670835	-0.011712	2.578768
55.167025	1998.292364	11.675840	-0.011697	2.578755
55.221584	1998.257464	11.680845	-0.011708	2.578744
55.245657	1998.302976	11.685850	-0.011713	2.578777
55.173145	1998.275339	11.690855	-0.011701	2.578748
55.433160	1998.267233	11.695859	-0.011749	2.578792
55.349343	1998.312903	11.700864	-0.011734	2.578805
55.342550	1998.300223	11.705869	-0.011734	2.578797
55.483338	1998.321987	11.710874	-0.011760	2.578837
55.391963	1998.280957	11.715879	-0.011744	2.578796
55.220268	1998.276841	11.720883	-0.011714	2.578762
55.102219	1998.304357	11.725888	-0.011693	2.578757
55.128671	1998.301206	11.730893	-0.011699	2.578761
55.312862	1998.280704	11.735898	-0.011733	2.578784
55.258184	1998.297626	11.740903	-0.011723	2.578785
55.088774	1998.242581	11.745907	-0.011694	2.578720
55.307819	1998.322919	11.750912	-0.011734	2.578811
55.292344	1998.290948	11.755917	-0.011732	2.578789
55.433019	1998.294640	11.760922	-0.011758	2.578818
55.225620	1998.301631	11.765927	-0.011721	2.578785
55.167008	1998.248350	11.770931	-0.011711	2.578742
55.344347	1998.291386	11.775936	-0.011744	2.578802
55.351961	1998.293452	11.780941	-0.011746	2.578806
55.151443	1998.306512	11.785946	-0.011711	2.578777
55.254728	1998.262919	11.790951	-0.011730	2.578770
55.198555	1998.272646	11.795955	-0.011721	2.578767
55.339311	1998.289318	11.800960	-0.011747	2.578804
55.101569	1998.319304	11.805965	-0.011705	2.578779
55.322311	1998.294832	11.810970	-0.011745	2.578805
55.322123	1998.286774	11.815975	-0.011746	2.578801
55.298934	1998.242103	11.820979	-0.011743	2.578770
55.214261	1998.298998	11.825984	-0.011728	2.578790
55.392896	1998.283756	11.830989	-0.011761	2.578815
55.205404	1998.293111	11.835994	-0.011728	2.578786
55.302591	1998.273303	11.840999	-0.011746	2.578793
55.350309	1998.321064	11.846003	-0.011755	2.578832
55.165499	1998.279622	11.851008	-0.011723	2.578773
55.183908	1998.286822	11.856013	-0.011727	2.578781
55.325217	1998.277061	11.861018	-0.011753	2.578803
55.099746	1998.285211	11.866023	-0.011713	2.578766
55.436209	1998.281917	11.871027	-0.011775	2.578828
55.276841	1998.267677	11.876032	-0.011747	2.578790
55.259800	1998.321609	11.881037	-0.011744	2.578821
55.150214	1998.292746	11.886042	-0.011725	2.578783
55.198865	1998.291517	11.891047	-0.011735	2.578792
55.276660	1998.281684	11.896051	-0.011749	2.578802
55.178653	1998.281432	11.901056	-0.011732	2.578784
55.253244	1998.268492	11.906061	-0.011747	2.578791
55.275782	1998.307332	11.911066	-0.011752	2.578819
55.255890	1998.311384	11.916071	-0.011749	2.578819
55.332374	1998.289199	11.921075	-0.011763	2.578820
55.350806	1998.278032	11.926080	-0.011767	2.578818
55.367375	1998.266920	11.931085	-0.011771	2.578815
55.262934	1998.315800	11.936090	-0.011753	2.578826
55.283219	1998.280863	11.941095	-0.011757	2.578809
55.142047	1998.316427	11.946099	-0.011732	2.578805
55.202335	1998.254031	11.951104	-0.011744	2.578779
55.313336	1998.302954	11.956109	-0.011765	2.578831
55.202777	1998.277192	11.961114	-0.011746	2.578795
55.105832	1998.285287	11.966119	-0.011729	2.578783
55.204685	1998.281293	11.971123	-0.011747	2.578799
55.191147	1998.263778	11.976128	-0.011746	2.578787
55.258944	1998.289370	11.981133	-0.011759	2.578816
55.187248	1998.304580	11.986138	-0.011746	2.578813
55.174021	1998.255605	11.991143	-0.011745	2.578781
55.235026	1998.317432	11.996147	-0.011757	2.578831
55.330135	1998.297236	12.001152	-0.011774	2.578837
55.123126	1998.306403	12.006157	-0.011738	2.578805
55.334073	1998.261958	12.011162	-0.011777	2.578818
55.193932	1998.313275	12.016167	-0.011752	2.578824
55.290323	1998.251123	12.021171	-0.011770	2.578804
55.154446	1998.321034	12.026176	-0.011746	2.578823
55.279552	1998.240973	12.031181	-0.011770	2.578798
55.255551	1998.299825	12.036186	-0.011766	2.578830
55.347068	1998.281996	12.041191	-0.011783	2.578837
55.142307	1998.319805	12.046195	-0.011747	2.578823
55.282708	1998.260085	12.051200	-0.011773	2.578813
55.145652	1998.283943	12.056205	-0.011749	2.578803
55.353495	1998.294759	12.061210	-0.011787	2.578849
55.207859	1998.309240	12.066215	-0.011762	2.578831
55.318717	1998.290121	12.071219	-0.011783	2.578841
55.332044	1998.270305	12.076224	-0.011786	2.578832
55.360919	1998.293959	12.081229	-0.011792	2.578853
55.237655	1998.291693	12.086234	-0.011770	2.578829
55.256707	1998.295637	12.091239	-0.011774	2.578836
55.320572	1998.302789	12.096243	-0.011787	2.578853
55.241469	1998.269759	12.101248	-0.011773	2.578819
55.269822	1998.311932	12.106253	-0.011779	2.578850
55.217835	1998.288765	12.111258	-0.011770	2.578827
55.271934	1998.283840	12.116263	-0.011781	2.578835
55.245863	1998.297675	12.121267	-0.011777	2.578840
55.241662	1998.270947	12.126272	-0.011777	2.578823
55.281216	1998.301300	12.131277	-0.011785	2.578850
55.209987	1998.311777	12.136282	-0.011773	2.578844
55.422001	1998.263694	12.141287	-0.011812	2.578855
55.336820	1998.312074	12.146291	-0.011797	2.578869
55.338389	1998.282571	12.151296	-0.011798	2.578852
55.155804	1998.304204	12.156301	-0.011766	2.578832
55.170542	1998.269423	12.161306	-0.011769	2.578814
55.316392	1998.244513	12.166311	-0.011796	2.578827
55.318856	1998.322097	12.171315	-0.011797	2.578876
55.284389	1998.252037	12.176320	-0.011792	2.578827
55.299434	1998.324777	12.181325	-0.011795	2.578875
55.302596	1998.267504	12.186330	-0.011797	2.578841
55.168432	1997.970460	12.191335	-0.011773	2.578635

55.338362	1997.585846	12.196339	-0.011804	2.578432
55.230183	1996.823606	12.201344	-0.011786	2.577946
55.235859	1995.692525	12.206349	-0.011787	2.577255
55.229570	1994.335321	12.211354	-0.011787	2.576423
55.319981	1992.754316	12.216359	-0.011804	2.575472
55.351306	1991.086198	12.221363	-0.011810	2.574456
55.140593	1989.389298	12.226368	-0.011772	2.573377
55.196524	1987.603636	12.231373	-0.011783	2.572292
55.172332	1985.734274	12.236378	-0.011779	2.571141
55.365309	1983.853031	12.241383	-0.011815	2.570023
55.228862	1981.955219	12.246387	-0.011791	2.568832
55.335530	1980.003604	12.251392	-0.011810	2.567653
55.180315	1978.076761	12.256397	-0.011783	2.566440
55.140824	1976.197560	12.261402	-0.011776	2.565277
54.994203	1974.221776	12.266407	-0.011750	2.564034
55.187306	1972.175179	12.271411	-0.011786	2.562811
55.077848	1970.198891	12.276416	-0.011767	2.561573
55.119150	1968.253601	12.281421	-0.011775	2.560383
55.038188	1966.238407	12.286426	-0.011761	2.559126
55.024475	1964.243940	12.291431	-0.011759	2.557893
54.985561	1962.226771	12.296435	-0.011752	2.556641
55.061202	1960.300500	12.301440	-0.011766	2.555467
55.058663	1958.280478	12.306445	-0.011767	2.554219
55.035208	1956.281454	12.311450	-0.011763	2.552980
54.893517	1954.268754	12.316455	-0.011738	2.551709
54.872865	1952.321800	12.321459	-0.011735	2.550501
54.961615	1950.259707	12.326464	-0.011751	2.549242
54.910522	1948.268246	12.331469	-0.011743	2.547999
54.957246	1946.216180	12.336474	-0.011752	2.546737
54.767401	1944.344566	12.341479	-0.011718	2.545542
54.916739	1942.276470	12.346483	-0.011745	2.544288
54.851368	1940.282717	12.351488	-0.011734	2.543039
55.066843	1938.204935	12.356493	-0.011774	2.541790
54.920799	1936.308143	12.361498	-0.011748	2.540585
54.786992	1934.321664	12.366503	-0.011724	2.539326
54.919083	1932.264489	12.371507	-0.011749	2.538073
54.894377	1930.241416	12.376512	-0.011745	2.536810
54.799788	1928.357805	12.381517	-0.011728	2.535620
54.775621	1926.351572	12.386522	-0.011724	2.534367
54.837144	1924.298845	12.391527	-0.011736	2.533101
54.869866	1922.261192	12.396531	-0.011743	2.531838
54.783669	1920.327481	12.401536	-0.011728	2.530616
54.565423	1918.338324	12.406541	-0.011689	2.529334
54.726220	1916.281757	12.411546	-0.011718	2.528082
54.840105	1914.223783	12.416551	-0.011739	2.526819
54.931351	1912.277129	12.421555	-0.011756	2.525620
54.770054	1910.299092	12.426560	-0.011728	2.524354
54.775180	1908.293843	12.431565	-0.011729	2.523101
54.796684	1906.246667	12.436570	-0.011734	2.521825
54.789813	1904.325110	12.441575	-0.011733	2.520621
54.709310	1902.309436	12.446579	-0.011719	2.519344
54.807335	1900.283190	12.451584	-0.011737	2.518094
54.726820	1898.277535	12.456589	-0.011723	2.516821
54.702302	1896.371921	12.461594	-0.011720	2.515622
54.625461	1894.345762	12.466599	-0.011706	2.514336
54.713589	1892.313081	12.471603	-0.011723	2.513077
54.493282	1890.345155	12.476608	-0.011683	2.511799
54.569228	1888.357702	12.481613	-0.011698	2.510565
54.681143	1886.285736	12.486618	-0.011719	2.509284
54.751846	1884.271088	12.491623	-0.011732	2.508031
54.688404	1882.265611	12.496627	-0.011721	2.506757
54.776205	1880.310645	12.501632	-0.011737	2.505543
54.668656	1878.322943	12.506637	-0.011718	2.504270
54.654256	1876.325015	12.511642	-0.011716	2.503009
54.524943	1874.323046	12.516647	-0.011694	2.501721
54.683714	1872.342983	12.521651	-0.011723	2.500503
54.555633	1870.333545	12.526656	-0.011700	2.499210
54.838287	1868.254372	12.531661	-0.011752	2.497952
54.519299	1866.345905	12.536666	-0.011695	2.496685
54.588770	1864.408975	12.541671	-0.011708	2.495474
54.618430	1862.338695	12.546675	-0.011714	2.494171
54.549879	1860.348968	12.551680	-0.011702	2.492898
54.512038	1858.334328	12.556685	-0.011696	2.491616
54.434252	1856.394329	12.561690	-0.011682	2.490372
54.282446	1854.381344	12.566695	-0.011655	2.489067
54.410423	1852.318110	12.571699	-0.011679	2.487784
54.440048	1850.294266	12.576704	-0.011685	2.486506
54.382633	1848.372934	12.581709	-0.011675	2.485275
54.357492	1846.326701	12.586714	-0.011671	2.483971
54.320631	1844.350211	12.591719	-0.011665	2.482708
54.320659	1842.338355	12.596723	-0.011666	2.481429
54.363855	1840.368693	12.601728	-0.011674	2.480185
54.284036	1838.362130	12.606733	-0.011660	2.478893
54.231609	1836.353590	12.611738	-0.011651	2.477604
54.192458	1834.380953	12.616743	-0.011645	2.476340
54.338841	1832.368836	12.621747	-0.011672	2.475086
54.198390	1830.375598	12.626752	-0.011647	2.473788
54.361504	1828.315353	12.631757	-0.011677	2.472506
54.415718	1826.306302	12.636762	-0.011687	2.471234
54.162226	1824.416538	12.641767	-0.011642	2.469977
54.153699	1822.373207	12.646771	-0.011641	2.468670
54.202773	1820.346630	12.651776	-0.011651	2.467384
54.198395	1818.360495	12.656781	-0.011650	2.466113
54.211674	1816.395532	12.661786	-0.011653	2.464859
54.127648	1814.366567	12.666791	-0.011639	2.463543
54.123932	1812.366525	12.671795	-0.011639	2.462261
54.106445	1810.376397	12.676800	-0.011636	2.460982
54.054102	1808.401464	12.681805	-0.011627	2.459705
54.160778	1806.333770	12.686810	-0.011647	2.458400
54.153656	1804.357176	12.691815	-0.011646	2.457130
54.059178	1802.439897	12.696819	-0.011630	2.455880
54.164994	1800.405954	12.701824	-0.011649	2.454594
53.962178	1798.408427	12.706829	-0.011613	2.453269
53.962931	1796.404202	12.711834	-0.011614	2.451980
53.894692	1794.426458	12.716839	-0.011602	2.450694
53.876686	1792.419234	12.721843	-0.011599	2.449398
53.893902	1790.365157	12.726848	-0.011603	2.448078
53.870981	1788.390392	12.731853	-0.011600	2.446800
53.950110	1786.409305	12.736858	-0.011614	2.445538
53.783408	1784.446719	12.741863	-0.011585	2.444238
53.832967	1782.377534	12.746867	-0.011594	2.442912
53.859292	1780.382313	12.751872	-0.011600	2.441629
53.866642	1778.412098	12.756877	-0.011602	2.440357
53.877861	1776.394922	12.761882	-0.011604	2.439055
53.613532	1774.417296	12.766887	-0.011557	2.437722
53.672418	1772.447544	12.771891	-0.011568	2.436459
53.816115	1770.406319	12.776896	-0.011595	2.435166
53.808270	1768.419540	12.781901	-0.011594	2.433877
53.708391	1766.406498	12.786906	-0.011576	2.432551
53.637618	1764.448793	12.791911	-0.011564	2.431267
53.560437	1762.443185	12.796915	-0.011551	2.429950
53.563448	1760.430179	12.801920	-0.011552	2.428643
53.535031	1758.406146	12.806925	-0.011547	2.427322
53.662527	1756.433757	12.811930	-0.011571	2.426065
53.662946	1754.394073	12.816935	-0.011571	2.424739
53.608196	1752.403512	12.821939	-0.011562	2.423432
53.638341	1750.375990	12.826944	-0.011568	2.422118
53.555736	1748.481216	12.831949	-0.011554	2.420867
53.465815	1746.444964	12.836954	-0.011538	2.419521
53.429582	1744.439368	12.841959	-0.011532	2.418206
53.445276	1742.419963	12.846963	-0.011535	2.416891
53.526320	1740.498185	12.851968	-0.011551	2.415653
53.495708	1738.451576	12.856973	-0.011546	2.414310
53.516232	1736.435104	12.861978	-0.011550	2.412996
53.501939	1734.411450	12.866983	-0.011548	2.411669
53.444832	1732.451774	12.871987	-0.011538	2.410375
53.359808	1730.436083	12.876992	-0.011523	2.409038
53.376623	1728.427770	12.881997	-0.011527	2.407726
53.254776	1726.478115	12.887002	-0.011505	2.406424
53.471905	1724.413576	12.892007	-0.011545	2.405114
53.398543	1722.422501	12.897011	-0.011533	2.403792
53.350899	1720.445693	12.902016	-0.011525	2.402485
53.221317	1718.498517	12.907021	-0.011502	2.401179
53.427438	1716.422011	12.912026	-0.011539	2.399857
53.451759	1714.383648	12.917031	-0.011544	2.398521
53.357501	1712.428308	12.922035	-0.011528	2.397216
53.287537	1710.514123	12.927040	-0.011516	2.395941
53.405969	1708.458336	12.932045	-0.011538	2.394611
53.237974	1706.461967	12.937050	-0.011508	2.393261
53.340319	1704.447017	12.942055	-0.011527	2.391954
53.234681	1702.497602	12.947059	-0.011509	2.390646
53.337963	1700.442463	12.952064	-0.011528	2.389310
53.305457	1698.418654	12.957069	-0.011522	2.387967
53.136874	1696.521175	12.962074	-0.011493	2.386678
53.124496	1694.514817	12.967079	-0.011491	2.385349
53.221259	1692.461458	12.972083	-0.011509	2.384011
53.106418	1690.452492	12.977088	-0.011489	2.382657
53.102719	1688.514399	12.982093	-0.011489	2.381373
52.997408	1686.516039	12.987098	-0.011470	2.380027
53.118569	1684.455345	12.992103	-0.011493	2.378685
52.985264	1682.460955	12.997107	-0.011469	2.377335
53.171415	1680.519023	13.002112	-0.011503	2.376084
53.146768	1678.485256	13.007117	-0.011499	2.374728
53.141695	1676.470961	13.012122	-0.011499	2.373389
53.051657	1674.498598	13.017127	-0.011483	2.372058
53.155239	1672.507549	13.022131	-0.011503	2.370755
52.902924	1670.513046	13.027136	-0.011458	2.369375
52.882368	1668.503450	13.032141	-0.011454	2.368032
52.731665	1666.584274	13.037146	-0.011428	2.366722
52.908106	1664.525074	13.042151	-0.011460	2.365386
52.784065	1662.521712	13.047155	-0.011438	2.364023
52.824512	1660.514460	13.052160	-0.011446	2.362692
52.885997	1658.514836	13.057165	-0.011458	2.361369
52.842156	1656.513258	13.062170	-0.011451	2.360022
52.900696	1654.461742	13.067175	-0.011462	2.358662
52.756089	1652.523312	13.072179	-0.011436	2.357335
52.804846	1650.553807	13.077184	-0.011445	2.356027
52.711681	1648.570109	13.082189	-0.011429	2.354679
52.706031	1646.521835	13.087194	-0.011429	2.353305
52.721827	1644.527824	13.092199	-0.011432	2.351971
52.775516	1642.488929	13.097203	-0.011442	2.350614
52.855079	1640.502807	13.102208	-0.011457	2.349297
52.731343	1638.495660	13.107213	-0.011436	2.347923
52.737934	1636.562205	13.112218	-0.011437	2.346625
52.623540	1634.576974	13.117223	-0.011417	2.345266
52.771219	1632.507483	13.122227	-0.011444	2.343904
52.642376	1630.509666	13.127232	-0.011422	2.342532
52.547600	1628.608654	13.132237	-0.011405	2.341231
52.586230	1626.534868	13.137242	-0.011413	2.339842
52.577308	1624.541927	13.142247	-0.011412	2.338496
52.501714	1622.575162	13.147251	-0.011399	2.337152
52.538340	1620.599361	13.152256	-0.011406	2.335826
52.513089	1618.575256	13.157261	-0.011402	2.334453
52.529032	1616.556058	13.162266	-0.011405	2.333091
52.480319	1614.556668	13.167271	-0.011397	2.331729
52.533747	1612.553654	13.172275	-0.011407	2.330384
52.347211	1610.549579	13.177280	-0.011374	2.328988
52.417713	1608.532273	13.182285	-0.011387	2.327636
52.395041	1606.589021	13.187290	-0.011384	2.326313
52.373302	1604.571412	13.192295	-0.011380	2.324940
52.467328	1602.512277	13.197299	-0.011398	2.323562
52.409854	1600.585184	13.202304	-0.011388	2.322241
52.367400	1598.578533	13.207309	-0.011381	2.320868
52.308773	1596.592829	13.212314	-0.011371	2.319506
52.331517	1594.548860	13.217319	-0.011376	2.318120
52.361803	1592.596287	13.222323	-0.011382	2.316797
52.275935	1590.624027	13.227328	-0.011367	2.315435
52.267242	1588.586858	13.232333	-0.011366	2.314045
52.223750	1586.563208	13.237338	-0.011358	2.312655
52.325998	1584.597194	13.242343	-0.011377	2.311336
52.105242	1582.619704	13.247347	-0.011338	2.309938
52.219742	1580.588878	13.252352	-0.011359	2.308575
52.032310	1578.622784	13.257357	-0.011326	2.307191
52.158732	1576.623637	13.262362	-0.011349	2.305851
52.145428	1574.593858	13.267367	-0.011348	2.304458
52.280852	1572.552054	13.272371	-0.011373	2.303089
52.081356	1570.639429	13.277376	-0.011337	2.301736
52.125337	1568.608699	13.282381	-0.011346	2.300353
52.132941	1566.587883	13.287386	-0.011348	2.298968
52.083205	1564.609934	13.292391	-0.011339	2.297600
52.098403	1562.667251	13.297395	-0.011342	2.296268
52.078710	1560.648163	13.302400	-0.011339	2.294877
51.996261	1558.622602	13.307405	-0.011325	2.293466
52.143582	1556.623485	13.312410	-0.011352	2.292122
52.207654	1554.561539	13.317415	-0.011364	2.290716
52.165264	1552.603608	13.322419	-0.011357	2.289358
52.050705	1550.596715	13.327424	-0.011337	2.287950
52.021399	1548.682727	13.332429	-0.011332	2.286623
51.812750	1546.692321	13.337434	-0.011295	2.285204
51.937466	1544.633248	13.342439	-0.011318	2.283809
52.002607	1542.622366	13.347443	-0.011331	2.282434
51.893483	1540.679967	13.352448	-0.011312	2.281067
51.853669	1538.656293	13.357453	-0.011305	2.279658
51.758414	1536.668242	13.362458	-0.011288	2.278261
51.775300	1534.710489	13.367463	-0.011292	2.276909
51.859455	1532.661367	13.372467	-0.011308	2.275507
51.694542	1530.681195	13.377472	-0.011278	2.274097
51.855660	1528.619517	13.382477	-0.011308	2.272702
51.743536	1526.699108	13.387482	-0.011288	2.271344
51.710930	1524.673103	13.392487	-0.011283	2.269929
51.682999	1522.664391	13.397491	-0.011279	2.268526
51.699642	1520.692633	13.402496	-0.011282	2.267158
51.613937	1518.715813	13.407501	-0.011267	2.265763
51.595345	1516.692862	13.412506	-0.011264	2.264350
51.546428	1514.667546	13.417511	-0.011256	2.262928
51.705879	1512.675692	13.422515	-0.011285	2.261574
51.514545	1510.715266	13.427520	-0.011251	2.260163
51.445831	1508.713159	13.432525	-0.011240	2.258750
51.474654	1506.714782	13.437530	-0.011245	2.257360
51.542595	1504.702593	13.442535	-0.011258	2.255968
51.613254	1502.653538	13.447539	-0.011272	2.254551
51.553471	1500.645176	13.452544	-0.011261	2.253131
51.353784	1498.751319	13.457549	-0.011226	2.251761
51.275214	1496.728056	13.462554	-0.011212	2.250325
51.513276	1494.634715	13.467559	-0.011256	2.248910
51.520711	1492.657081	13.472563	-0.011258	2.247524
51.433219	1490.720890	13.477568	-0.011242	2.246145
51.570854	1488.655241	13.482573	-0.011268	2.244724
51.607103	1486.635565	13.487578	-0.011275	2.243312
51.629046	1484.673989	13.492583	-0.011279	2.241937
51.351789	1482.750436	13.497587	-0.011230	2.240521
51.325735	1480.724790	13.502592	-0.011226	2.239088
51.539104	1478.675128	13.507597	-0.011265	2.237691
51.626814	1476.700727	13.512602	-0.011281	2.236318
51.335731	1474.760787	13.517607	-0.011229	2.234884
51.443397	1472.710956	13.522611	-0.011249	2.233461
51.278919	1470.754086	13.527616	-0.011220	2.232041
51.445312	1468.722620	13.532621	-0.011251	2.230642
51.415864	1466.681668	13.537626	-0.011246	2.229191
51.308916	1464.763303	13.542631	-0.011227	2.227809
51.272296	1462.763117	13.547635	-0.011221	2.226384
51.314438	1460.767644	13.552640	-0.011229	2.224979
51.152766	1458.755123	13.557645	-0.011201	2.223515
51.086603	1456.823339	13.562650	-0.011189	2.222129
51.049880	1454.797370	13.567655	-0.011183	2.220682
51.293201	1452.713343	13.572659	-0.011228	2.219256
51.271583	1450.740254	13.577664	-0.011224	2.217848
51.084991	1448.838716	13.582669	-0.011191	2.216452
51.064759	1446.802432	13.587674	-0.011188	2.214998
51.081106	1444.771863	13.592679	-0.011192	2.213555
50.983226	1442.799853	13.597683	-0.011174	2.212127
51.081767	1440.795445	13.602688	-0.011193	2.210719
51.095037	1438.721047	13.607693	-0.011196	2.209241
50.920202	1436.830647	13.612698	-0.011165	2.207851
50.856542	1434.844232	13.617703	-0.011154	2.206416
51.055819	1432.771707	13.622707	-0.011190	2.204979
50.963152	1430.763123	13.627712	-0.011174	2.203520
51.051896	1428.770777	13.632717	-0.011191	2.202114
50.811330	1426.830548	13.637722	-0.011148	2.200668
50.875690	1424.800868	13.642727	-0.011160	2.199227
50.878247	1422.807131	13.647731	-0.011161	2.197797
51.004931	1420.809767	13.652736	-0.011185	2.196392
50.939402	1418.780335	13.657741	-0.011173	2.194919
50.843935	1416.814288	13.662746	-0.011157	2.193483
50.852989	1414.835392	13.667751	-0.011159	2.192061
50.953832	1412.787214	13.672755	-0.011178	2.190610
50.675380	1410.851696	13.677760	-0.011128	2.189151
50.997893	1408.790618	13.682765	-0.011187	2.187740
50.774458	1406.842648	13.687770	-0.011147	2.186283
50.939392	1404.800542	13.692775	-0.011177	2.184847
50.972443	1402.767159	13.697779	-0.011184	2.183385
50.816265	1400.879714	13.702784	-0.011156	2.181985
50.837145	1398.839489	13.707789	-0.011160	2.180514
50.973515	1396.795531	13.712794	-0.011186	2.179066
50.798777	1394.870694	13.717799	-0.011155	2.177632
50.817221	1392.901356	13.722803	-0.011158	2.176209
50.642569	1390.895464	13.727808	-0.011127	2.174714
50.698594	1388.868009	13.732813	-0.011138	2.173255
50.603797	1386.898329	13.737818	-0.011122	2.171803
50.611972	1384.881727	13.742823	-0.011124	2.170339
50.754707	1382.791209	13.747827	-0.011150	2.168852
50.506590	1380.935972	13.752832	-0.011106	2.167445
50.463565	1378.924532	13.757837	-0.011098	2.165970
50.600732	1376.848879	13.762842	-0.011124	2.164489
50.478925	1374.887354	13.767847	-0.011102	2.163031
50.573806	1372.886920	13.772851	-0.011120	2.161593
50.513158	1370.867990	13.777856	-0.011110	2.160105
50.593222	1368.850819	13.782861	-0.011125	2.158650
50.502303	1366.927299	13.787866	-0.011109	2.157222
50.581055	1364.888044	13.792871	-0.011124	2.155749
50.324915	1362.917016	13.797875	-0.011078	2.154246
50.498350	1360.907569	13.802880	-0.011110	2.152814
50.328161	1358.940421	13.807885	-0.011080	2.151332
50.466456	1356.878074	13.812890	-0.011105	2.149852
50.292306	1354.910317	13.817895	-0.011074	2.148366
50.388026	1352.948190	13.822899	-0.011092	2.146947
50.134594	1350.974999	13.827904	-0.011047	2.145437
50.461523	1348.852371	13.832909	-0.011106	2.143952
50.273738	1346.948361	13.837914	-0.011073	2.142507
50.369123	1344.925751	13.842919	-0.011091	2.141039
50.387161	1342.901511	13.847923	-0.011095	2.139551
50.309151	1340.950182	13.852928	-0.011081	2.138093
50.277766	1338.980649	13.857933	-0.011076	2.136632
50.227050	1336.992053	13.862938	-0.011067	2.135151
50.171542	1334.975794	13.867943	-0.011058	2.133648
50.125617	1333.016514	13.872947	-0.011050	2.132187
50.055625	1330.977175	13.877952	-0.011038	2.130661
50.304756	1328.892132	13.882957	-0.011084	2.129176
50.167284	1326.978281	13.887962	-0.011059	2.127725
50.199569	1324.963499	13.892967	-0.011066	2.126238
50.192546	1322.921523	13.897971	-0.011065	2.124720
50.109284	1320.989604	13.902976	-0.011051	2.123265
49.980358	1319.024566	13.907981	-0.011028	2.121774
50.222501	1316.947958	13.912986	-0.011072	2.120287
49.996586	1314.992931	13.917991	-0.011032	2.118778
49.949146	1313.070525	13.922995	-0.011024	2.117334
49.860279	1311.045566	13.928000	-0.011008	2.115804
50.157795	1308.946756	13.933005	-0.011063	2.114309
50.021623	1307.006949	13.938010	-0.011039	2.112829
49.868441	1305.050199	13.943015	-0.011012	2.111330
49.944690	1302.981681	13.948019	-0.011026	2.109802
49.966312	1301.012201	13.953024	-0.011030	2.108334
49.954168	1299.024293	13.958029	-0.011029	2.106843
49.894250	1297.030221	13.963034	-0.011019	2.105335
49.931443	1294.984597	13.968039	-0.011026	2.103810
49.927260	1293.044140	13.973043	-0.011026	2.102353
49.768546	1291.055332	13.978048	-0.010997	2.100822
49.882305	1289.020415	13.983053	-0.011019	2.099321
49.871300	1287.050201	13.988058	-0.011017	2.097837
49.887913	1285.071271	13.993063	-0.011021	2.096352
49.867198	1283.041720	13.998067	-0.011018	2.094819
49.966391	1281.029168	14.003072	-0.011036	2.093327
49.777680	1279.056518	14.008077	-0.011002	2.091794
49.780310	1277.051389	14.013082	-0.011004	2.090281
49.831145	1275.025610	14.018087	-0.011013	2.088764
49.857355	1273.070904	14.023091	-0.011019	2.087293
49.592125	1271.102351	14.028096	-0.010971	2.085740
49.739841	1269.054120	14.033101	-0.010998	2.084226
49.637482	1267.105027	14.038106	-0.010981	2.082725
49.720805	1265.075027	14.043111	-0.010996	2.081207
49.581715	1263.086137	14.048115	-0.010972	2.079665
49.559917	1261.135420	14.053120	-0.010968	2.078179
49.582199	1259.112377	14.058125	-0.010973	2.076648
49.659741	1257.089449	14.063130	-0.010987	2.075130
49.504642	1255.119878	14.068135	-0.010960	2.073594
49.589022	1253.108747	14.073139	-0.010976	2.072084
49.545650	1251.087766	14.078144	-0.010968	2.070533
49.577504	1249.086643	14.083149	-0.010975	2.069016
49.518752	1247.137205	14.088154	-0.010965	2.067514
49.541883	1245.116257	14.093159	-0.010969	2.065977
49.526895	1243.093568	14.098163	-0.010967	2.064428
49.397278	1241.177043	14.103168	-0.010944	2.062931
49.372364	1239.153822	14.108173	-0.010940	2.061377
49.500744	1237.110027	14.113178	-0.010964	2.059844
49.539792	1235.120920	14.118183	-0.010972	2.058329
49.602068	1233.147129	14.123187	-0.010984	2.056831
49.382313	1231.179714	14.128192	-0.010944	2.055267
49.428477	1229.170568	14.133197	-0.010953	2.053736
49.299972	1227.200563	14.138202	-0.010931	2.052190
49.446260	1225.133116	14.143207	-0.010958	2.050636
49.325651	1223.147401	14.148211	-0.010936	2.049078
49.229153	1221.234412	14.153216	-0.010920	2.047580
49.294518	1219.164620	14.158221	-0.010932	2.046001
49.278034	1217.178606	14.163226	-0.010930	2.044465
49.158382	1215.224963	14.168231	-0.010908	2.042927
49.216218	1213.207057	14.173235	-0.010919	2.041382
49.137901	1211.191454	14.178240	-0.010906	2.039804
49.277788	1209.201896	14.183245	-0.010932	2.038299
49.211696	1207.206776	14.188250	-0.010920	2.036738
49.337311	1205.157522	14.193255	-0.010944	2.035181
49.216201	1203.191507	14.198259	-0.010922	2.033626
49.196091	1201.224740	14.203264	-0.010919	2.032095
49.144833	1199.197451	14.208269	-0.010910	2.030507
49.262218	1197.201314	14.213274	-0.010932	2.028985
49.011294	1195.290003	14.218279	-0.010887	2.027435
48.992114	1193.268261	14.223283	-0.010885	2.025856
48.973902	1191.241383	14.228288	-0.010882	2.024273
48.992839	1189.298476	14.233293	-0.010886	2.022762
49.030955	1187.242695	14.238298	-0.010893	2.021168
49.007826	1185.251862	14.243303	-0.010890	2.019607
48.935926	1183.294315	14.248307	-0.010877	2.018059
49.030709	1181.273791	14.253312	-0.010895	2.016503
48.949342	1179.258606	14.258317	-0.010881	2.014905
49.010237	1177.279820	14.263322	-0.010892	2.013370
48.750531	1175.315799	14.268327	-0.010846	2.011765
49.005071	1173.223907	14.273331	-0.010893	2.010188
48.801190	1171.309217	14.278336	-0.010856	2.008633
48.966787	1169.263518	14.283341	-0.010887	2.007068
48.874454	1167.277522	14.288346	-0.010871	2.005482
48.946265	1165.274028	14.293351	-0.010884	2.003924
48.701155	1163.340302	14.298355	-0.010840	2.002338
48.743467	1161.326920	14.303360	-0.010849	2.000762
48.658547	1159.333811	14.308365	-0.010834	1.999168
48.728862	1157.354609	14.313370	-0.010847	1.997623
48.758808	1155.307308	14.318375	-0.010853	1.996013
48.733971	1153.317861	14.323379	-0.010849	1.994433
48.704308	1151.332744	14.328384	-0.010844	1.992855
48.697689	1149.319486	14.333389	-0.010844	1.991258
48.467098	1147.363186	14.338394	-0.010803	1.989648
48.623375	1145.377188	14.343399	-0.010831	1.988113
48.618893	1143.341520	14.348403	-0.010831	1.986496
48.649321	1141.343671	14.353408	-0.010837	1.984916
48.506212	1139.405295	14.358413	-0.010812	1.983338
48.670687	1137.350242	14.363418	-0.010842	1.981745
48.481210	1135.370978	14.368423	-0.010808	1.980119
48.501283	1133.437841	14.373427	-0.010813	1.978584
48.318718	1131.455703	14.378432	-0.010780	1.976955
48.489059	1129.395395	14.383437	-0.010812	1.975354
48.477773	1127.392381	14.388442	-0.010810	1.973751
48.323351	1125.447059	14.393447	-0.010783	1.972155
48.379595	1123.383469	14.398451	-0.010793	1.970518
48.525502	1121.365236	14.403456	-0.010820	1.968939
48.447670	1119.393480	14.408461	-0.010807	1.967338
48.371929	1117.425201	14.413466	-0.010794	1.965740
48.251938	1115.460703	14.418471	-0.010773	1.964131
48.378580	1113.438993	14.423475	-0.010796	1.962539
48.296632	1111.423709	14.428480	-0.010782	1.960897
48.334274	1109.441751	14.433485	-0.010789	1.959311
48.287993	1107.464296	14.438490	-0.010781	1.957706
48.292173	1105.461034	14.443495	-0.010783	1.956092
48.275923	1103.452737	14.448499	-0.010780	1.954467
48.344877	1101.454679	14.453504	-0.010793	1.952872
48.194613	1099.463419	14.458509	-0.010767	1.951223
48.320708	1097.442322	14.463514	-0.010790	1.949621
48.159209	1095.506473	14.468519	-0.010761	1.948011
48.300385	1093.474474	14.473523	-0.010788	1.946402
48.067537	1091.510749	14.478528	-0.010746	1.944748
48.159636	1089.528409	14.483533	-0.010763	1.943163
48.149160	1087.496994	14.488538	-0.010762	1.941510
48.245167	1085.471736	14.493543	-0.010780	1.939889
48.286433	1083.474023	14.498547	-0.010788	1.938275
48.145051	1081.507816	14.503552	-0.010763	1.936636
48.122257	1079.493565	14.508557	-0.010759	1.934988
48.187510	1077.516172	14.513562	-0.010772	1.933392
48.008909	1075.542938	14.518567	-0.010740	1.931734
48.057983	1073.501021	14.523571	-0.010749	1.930078
48.031529	1071.550109	14.528576	-0.010745	1.928476
48.041072	1069.538406	14.533581	-0.010747	1.926832
48.003186	1067.516670	14.538586	-0.010741	1.925166
47.972096	1065.566938	14.543591	-0.010736	1.923559
48.043290	1063.526931	14.548595	-0.010749	1.921904
47.977581	1061.548343	14.553600	-0.010738	1.920261
47.809054	1059.619836	14.558605	-0.010708	1.918631
47.924265	1057.582559	14.563610	-0.010730	1.916985
47.854649	1055.575912	14.568615	-0.010718	1.915314
47.845746	1053.613269	14.573619	-0.010717	1.913695
47.709652	1051.625217	14.578624	-0.010693	1.912018
47.830377	1049.586210	14.583629	-0.010715	1.910367
47.509467	1047.702861	14.588634	-0.010658	1.908724
47.751764	1045.614929	14.593639	-0.010702	1.907063
47.600794	1043.632783	14.598643	-0.010675	1.905382
47.691549	1041.639103	14.603648	-0.010692	1.903755
47.674077	1039.603494	14.608653	-0.010689	1.902062
47.571137	1037.641806	14.613658	-0.010671	1.900406
47.576953	1035.690972	14.618663	-0.010673	1.898787
47.638716	1033.672477	14.623667	-0.010685	1.897126
47.580392	1031.648161	14.628672	-0.010675	1.895426
47.665211	1029.650367	14.633677	-0.010691	1.893785
47.512831	1027.667356	14.638682	-0.010664	1.892091
47.546479	1025.667903	14.643687	-0.010670	1.890432
47.514201	1023.688969	14.648691	-0.010665	1.888771
47.438896	1021.710947	14.653696	-0.010652	1.887097
47.589747	1019.639960	14.658701	-0.010680	1.885406
47.526644	1017.701927	14.663706	-0.010669	1.883766
47.310273	1015.742490	14.668711	-0.010630	1.882065
47.461540	1013.676553	14.673715	-0.010658	1.880374
47.385340	1011.751953	14.678720	-0.010645	1.878737
47.431443	1009.727736	14.683725	-0.010654	1.877049
47.314148	1007.727165	14.688730	-0.010633	1.875334
47.226350	1005.811051	14.693735	-0.010618	1.873697
47.240913	1003.743892	14.698739	-0.010621	1.871960
47.252905	1001.746238	14.703744	-0.010624	1.870279
47.146019	999.810603	14.708749	-0.010605	1.868615
47.372643	997.730244	14.713754	-0.010647	1.866921
47.345786	995.718049	14.718759	-0.010642	1.865212
47.289214	993.784521	14.723763	-0.010633	1.863560
47.123379	991.812184	14.728768	-0.010603	1.861843
47.330353	989.732257	14.733773	-0.010641	1.860137
47.144809	987.854830	14.738778	-0.010608	1.858492
47.102862	985.844060	14.743783	-0.010601	1.856773
47.123250	983.817269	14.748787	-0.010606	1.855055
47.138781	981.812995	14.753792	-0.010609	1.853354
47.193564	979.772398	14.758797	-0.010619	1.851631
47.058303	977.848407	14.763802	-0.010596	1.849953
47.092217	975.844140	14.768807	-0.010602	1.848253
47.186172	973.790938	14.773811	-0.010620	1.846525
47.207842	971.791094	14.778816	-0.010624	1.844822
46.995530	969.896407	14.783821	-0.010586	1.843141
47.035229	967.845139	14.788826	-0.010594	1.841395
47.182887	965.833970	14.793831	-0.010621	1.839713
47.096250	963.872720	14.798835	-0.010606	1.838006
47.092710	961.872746	14.803840	-0.010606	1.836287
46.961503	959.908286	14.808845	-0.010583	1.834561
46.975242	957.898048	14.813850	-0.010586	1.832835
47.020756	955.865301	14.818855	-0.010595	1.831097
46.936512	953.927077	14.823859	-0.010580	1.829403
46.861134	951.946743	14.828864	-0.010567	1.827672
46.889717	949.913154	14.833869	-0.010573	1.825924
46.829914	947.960731	14.838874	-0.010563	1.824219
46.798736	945.953522	14.843879	-0.010558	1.822473
46.917527	943.894006	14.848883	-0.010580	1.820723
46.851794	942.009766	14.853888	-0.010568	1.819071
46.708341	940.000134	14.858893	-0.010543	1.817286
46.622071	938.020545	14.863898	-0.010528	1.815542
46.669867	936.000694	14.868903	-0.010537	1.813799
46.749353	933.976797	14.873907	-0.010552	1.812061
46.817170	931.942724	14.878912	-0.010565	1.810308
46.898741	929.950043	14.883917	-0.010580	1.808594
46.776982	927.971937	14.888922	-0.010559	1.806832
46.715310	926.004194	14.893927	-0.010548	1.805095
46.607694	924.043177	14.898931	-0.010529	1.803349
46.636850	922.025456	14.903936	-0.010535	1.801592
46.582959	920.042776	14.908941	-0.010526	1.799839
46.552002	918.080970	14.913946	-0.010521	1.798109
46.499312	916.057902	14.918951	-0.010512	1.796318
46.693383	914.018960	14.923955	-0.010548	1.794582
46.575082	912.049905	14.928960	-0.010527	1.792816
46.549434	910.064118	14.933965	-0.010523	1.791060
46.469762	908.101836	14.938970	-0.010509	1.789307
46.531388	906.088314	14.943975	-0.010521	1.787549
46.506531	904.072465	14.948979	-0.010517	1.785761
46.360898	902.161851	14.953984	-0.010491	1.784030
46.319913	900.130831	14.958989	-0.010484	1.782220
46.175705	898.190205	14.963994	-0.010458	1.780459
46.195362	896.194599	14.968999	-0.010463	1.778696
46.228119	894.167646	14.974003	-0.010469	1.776906
46.221414	892.165412	14.979008	-0.010468	1.775126
46.225893	890.159386	14.984013	-0.010470	1.773343
46.226215	888.125570	14.989018	-0.010470	1.771532
46.281619	886.141755	14.994023	-0.010481	1.769781
46.038741	884.210627	14.999027	-0.010438	1.767987
46.088269	882.179083	15.004032	-0.010447	1.766187
46.210987	880.150144	15.009037	-0.010470	1.764410
46.267379	878.146532	15.014042	-0.010481	1.762634
46.108622	876.176237	15.019047	-0.010453	1.760823
46.144737	874.225456	15.024051	-0.010460	1.759084
46.015193	872.229086	15.029056	-0.010437	1.757254
46.268436	870.168181	15.034061	-0.010483	1.755478
45.873053	868.284471	15.039066	-0.010412	1.753666
45.982200	866.243950	15.044071	-0.010432	1.751862
46.013158	864.238641	15.049075	-0.010439	1.750064
46.071137	862.231266	15.054080	-0.010450	1.748271
45.990732	860.236888	15.059085	-0.010436	1.746446
45.990598	858.280988	15.064090	-0.010436	1.744678
45.952741	856.269954	15.069095	-0.010430	1.742847
46.018659	854.256776	15.074099	-0.010442	1.741043
45.996211	852.311569	15.079104	-0.010439	1.739273
45.940017	850.319586	15.084109	-0.010429	1.737448
45.805416	848.341644	15.089114	-0.010406	1.735610
45.728910	846.376071	15.094119	-0.010392	1.733799
45.849858	844.309766	15.099123	-0.010415	1.731954
45.808934	842.348562	15.104128	-0.010408	1.730154
45.699084	840.374004	15.109133	-0.010389	1.728319
45.729040	838.347350	15.114138	-0.010395	1.726477
45.714928	836.383161	15.119143	-0.010393	1.724677
45.712250	834.384188	15.124147	-0.010393	1.722846
45.656676	832.379543	15.129152	-0.010383	1.720992
45.698566	830.419338	15.134157	-0.010391	1.719207
45.678325	828.386865	15.139162	-0.010388	1.717334
45.673186	826.412148	15.144167	-0.010388	1.715517
45.614216	824.426735	15.149171	-0.010378	1.713672
45.608081	822.418147	15.154176	-0.010377	1.711820
45.677811	820.405969	15.159181	-0.010390	1.709986
45.753721	818.397409	15.164186	-0.010405	1.708155
45.701527	816.394568	15.169191	-0.010396	1.706288
45.635489	814.470328	15.174195	-0.010384	1.704487
45.526495	812.482637	15.179200	-0.010365	1.702612
45.570359	810.484529	15.184205	-0.010374	1.700773
45.523000	808.517717	15.189210	-0.010366	1.698933
45.667792	806.472876	15.194215	-0.010392	1.697077
45.412821	804.543560	15.199219	-0.010347	1.695204
45.498312	802.522316	15.204224	-0.010363	1.693348
45.411688	800.521045	15.209229	-0.010348	1.691455
45.466082	798.545283	15.214234	-0.010358	1.689628
45.410936	796.536503	15.219239	-0.010349	1.687734
45.344084	794.577231	15.224243	-0.010337	1.685880
45.301475	792.583434	15.229248	-0.010330	1.684000
45.332061	790.567510	15.234253	-0.010336	1.682120
45.135425	788.643274	15.239258	-0.010301	1.680252
45.265919	786.609329	15.244263	-0.010325	1.678382
45.190579	784.606536	15.249267	-0.010312	1.676474
45.297615	782.604069	15.254272	-0.010332	1.674622
45.148452	780.625956	15.259277	-0.010306	1.672711
45.189165	778.626210	15.264282	-0.010314	1.670836
45.114904	776.652320	15.269287	-0.010301	1.668947
45.267102	774.601914	15.274291	-0.010329	1.667056
45.159634	772.655472	15.279296	-0.010310	1.665179
45.189579	770.652957	15.284301	-0.010316	1.663289
45.059537	768.680263	15.289306	-0.010293	1.661376
45.302700	766.672711	15.294311	-0.010338	1.659545
45.119259	764.715327	15.299315	-0.010305	1.657625
45.175097	762.712224	15.304320	-0.010316	1.655735
45.128187	760.709364	15.309325	-0.010308	1.653810
45.065581	758.720461	15.314330	-0.010297	1.651891
45.091846	756.735880	15.319335	-0.010302	1.650003
45.072598	754.745284	15.324339	-0.010299	1.648092
45.054208	752.737511	15.329344	-0.010297	1.646163
45.012598	750.784716	15.334349	-0.010290	1.644277
44.954363	748.785011	15.339354	-0.010280	1.642338
45.009220	746.801492	15.344359	-0.010290	1.640449
44.944215	744.805352	15.349363	-0.010279	1.638507
44.947823	742.800818	15.354368	-0.010280	1.636577
44.950171	740.818942	15.359373	-0.010281	1.634666
44.857844	738.847452	15.364378	-0.010265	1.632732
44.728941	736.891853	15.369383	-0.010242	1.630799
44.736129	734.894105	15.374387	-0.010244	1.628867
44.545015	732.924809	15.379392	-0.010210	1.626896
44.806652	730.879853	15.384397	-0.010258	1.624997
44.600276	728.918901	15.389402	-0.010221	1.623024
44.832778	726.852100	15.394407	-0.010264	1.621090
44.525516	724.962450	15.399411	-0.010209	1.619149
44.699025	722.896933	15.404416	-0.010241	1.617192
44.581616	720.951934	15.409421	-0.010220	1.615254
44.715444	718.889194	15.414426	-0.010245	1.613282
44.579396	716.945681	15.419431	-0.010221	1.611335
44.606275	714.962131	15.424435	-0.010226	1.609401
44.347906	713.010981	15.429440	-0.010180	1.607402
44.540954	710.980583	15.434445	-0.010216	1.605471
44.290443	709.036876	15.439450	-0.010171	1.603477
44.410049	706.995803	15.444455	-0.010193	1.601507
44.485925	705.002822	15.449459	-0.010207	1.599567
44.442816	703.008964	15.454464	-0.010200	1.597585
44.324793	701.049643	15.459469	-0.010179	1.595609
44.380604	699.032023	15.464474	-0.010190	1.593631
44.207491	697.097701	15.469479	-0.010159	1.591657
44.326696	695.076352	15.474483	-0.010181	1.589692
44.277871	693.071082	15.479488	-0.010173	1.587684
44.072910	691.170267	15.484493	-0.010137	1.585725
44.065620	689.137339	15.489498	-0.010136	1.583699
44.255705	687.093503	15.494503	-0.010171	1.581725
44.131533	685.165665	15.499507	-0.010149	1.579759
44.324457	683.098640	15.504512	-0.010184	1.577757
44.068528	681.196285	15.509517	-0.010139	1.575768
44.019651	679.201143	15.514522	-0.010130	1.573752
44.137438	677.152943	15.519527	-0.010152	1.571737
44.094832	675.195604	15.524531	-0.010145	1.569756
43.905253	673.232910	15.529536	-0.010111	1.567718
43.989581	671.231498	15.534541	-0.010127	1.565731
44.047196	669.209240	15.539546	-0.010138	1.563711
44.094025	667.205689	15.544551	-0.010147	1.561704
44.110299	665.231141	15.549555	-0.010151	1.559713
44.110362	663.229898	15.554560	-0.010151	1.557688
43.924363	661.301010	15.559565	-0.010118	1.555669
43.896676	659.304615	15.564570	-0.010114	1.553633
43.925157	657.300710	15.569575	-0.010120	1.551606
43.919605	655.316206	15.574579	-0.010119	1.549585
43.979493	653.281535	15.579584	-0.010130	1.547532
43.802778	651.384711	15.584589	-0.010099	1.545537
43.859023	649.349204	15.589594	-0.010110	1.543476
43.853086	647.379508	15.594599	-0.010109	1.541459
43.686408	645.434964	15.599603	-0.010080	1.539410
43.748818	643.405981	15.604608	-0.010092	1.537350
43.623513	641.446948	15.609613	-0.010070	1.535295
43.564315	639.457741	15.614618	-0.010059	1.533229
43.591284	637.454044	15.619623	-0.010065	1.531175
43.564988	635.469136	15.624627	-0.010061	1.529119
43.593860	633.452480	15.629632	-0.010066	1.527046
43.578595	631.473305	15.634637	-0.010064	1.524995
43.624042	629.438257	15.639642	-0.010073	1.522903
43.486486	627.543550	15.644647	-0.010049	1.520891
43.442511	625.528149	15.649651	-0.010041	1.518783
43.597294	623.490275	15.654656	-0.010070	1.516719
43.370198	621.576594	15.659661	-0.010029	1.514647
43.517902	619.511213	15.664666	-0.010057	1.512545
43.564055	617.539889	15.669671	-0.010065	1.510504
43.382575	615.601570	15.674675	-0.010033	1.508414
43.403568	613.593442	15.679680	-0.010038	1.506319
43.244444	611.658798	15.684685	-0.010009	1.504235
43.220039	609.656384	15.689690	-0.010006	1.502124
43.185613	607.710296	15.694695	-0.010000	1.500066
43.274799	605.653365	15.699699	-0.010017	1.497933
43.288401	603.675682	15.704704	-0.010020	1.495853
43.062792	601.730522	15.709709	-0.009979	1.493719
43.246815	599.690994	15.714714	-0.010013	1.491629
43.177783	597.706659	15.719719	-0.010001	1.489503
43.258500	595.691393	15.724723	-0.010016	1.487396
43.179800	593.731002	15.729728	-0.010003	1.485286
43.105646	591.758704	15.734733	-0.009990	1.483163
43.111905	589.783484	15.739738	-0.009992	1.481062
43.021044	587.809508	15.744743	-0.009976	1.478925
42.965466	585.828557	15.749747	-0.009966	1.476790
43.130119	583.780451	15.754752	-0.009997	1.474659
42.997758	581.818261	15.759757	-0.009973	1.472510
42.858094	579.901015	15.764762	-0.009949	1.470404
42.866200	577.872334	15.769767	-0.009951	1.468228
42.828896	575.919689	15.774771	-0.009944	1.466114
42.896236	573.880797	15.779776	-0.009957	1.463943
42.832248	571.931641	15.784781	-0.009946	1.461817
42.704756	569.975376	15.789786	-0.009924	1.459657
42.807280	567.940517	15.794791	-0.009943	1.457494
42.638819	565.998428	15.799795	-0.009913	1.455328
42.919545	563.901148	15.804800	-0.009964	1.453155
42.966657	561.912288	15.809805	-0.009973	1.451011
42.773745	559.990678	15.814810	-0.009939	1.448849
42.709655	558.015279	15.819815	-0.009928	1.446672
42.748894	556.008757	15.824819	-0.009936	1.444497
42.765433	554.015055	15.829824	-0.009939	1.442323
42.643048	552.089047	15.834829	-0.009918	1.440169
42.625450	550.075622	15.839834	-0.009915	1.437955
42.643081	548.098931	15.844839	-0.009919	1.435791
42.546987	546.101804	15.849843	-0.009902	1.433558
42.535603	544.149180	15.854848	-0.009900	1.431403
42.546209	542.129877	15.859853	-0.009903	1.429179
42.513763	540.162860	15.864858	-0.009898	1.426994
42.546324	538.165002	15.869863	-0.009904	1.424795
42.554446	536.176237	15.874867	-0.009906	1.422594
42.637420	534.182148	15.879872	-0.009922	1.420412
42.570217	532.210454	15.884877	-0.009910	1.418194
42.540459	530.239677	15.889882	-0.009905	1.415989
42.444623	528.268405	15.894887	-0.009888	1.413754
42.353985	526.308727	15.899891	-0.009873	1.411530
42.413958	524.294670	15.904896	-0.009884	1.409300
42.297622	522.335946	15.909901	-0.009864	1.407061
42.488091	520.294459	15.914906	-0.009899	1.404842
42.274329	518.368482	15.919911	-0.009860	1.402596
42.262950	516.404000	15.924915	-0.009859	1.400379
42.097467	514.430414	15.929920	-0.009830	1.398090
42.214733	512.415601	15.934925	-0.009851	1.395860
42.252703	510.394493	15.939930	-0.009859	1.393588
42.270488	508.420232	15.944935	-0.009863	1.391357
42.251350	506.424037	15.949939	-0.009860	1.389084
42.163796	504.492205	15.954944	-0.009844	1.386854
42.031917	502.521517	15.959949	-0.009821	1.384559
42.169679	500.502425	15.964954	-0.009847	1.382309
42.076029	498.546913	15.969959	-0.009830	1.380039
42.101208	496.548415	15.974963	-0.009835	1.377762
41.930489	494.602274	15.979968	-0.009805	1.375464
41.972071	492.592581	15.984973	-0.009813	1.373173
42.018658	490.587759	15.989978	-0.009822	1.370886
42.086925	488.573322	15.994983	-0.009835	1.368592
41.955430	486.647874	15.999987	-0.009812	1.366318
41.922688	484.650979	16.004992	-0.009806	1.363997
41.773781	482.728804	16.009997	-0.009780	1.361713
41.889631	480.696038	16.015002	-0.009802	1.359401
41.762685	478.756012	16.020007	-0.009779	1.357097
41.852878	476.723729	16.025011	-0.009796	1.354768
41.759922	474.756441	16.030016	-0.009780	1.352438
41.796699	472.775642	16.035021	-0.009787	1.350139
41.661035	470.819350	16.040026	-0.009763	1.347797
41.739488	468.812088	16.045031	-0.009778	1.345476
41.832890	466.788000	16.050035	-0.009795	1.343137
41.647735	464.902187	16.055040	-0.009762	1.340846
41.556527	462.918759	16.060045	-0.009746	1.338473
41.559097	460.939299	16.065050	-0.009747	1.336138
41.465912	458.956050	16.070055	-0.009731	1.333756
41.644024	456.930559	16.075059	-0.009764	1.331430
41.466962	454.984333	16.080064	-0.009732	1.329050
41.480268	453.006294	16.085069	-0.009735	1.326705
41.446170	451.007976	16.090074	-0.009730	1.324312
41.524703	449.031187	16.095079	-0.009745	1.321986
41.384172	447.064333	16.100083	-0.009720	1.319579
41.452147	445.067055	16.105088	-0.009733	1.317216
41.255012	443.128496	16.110093	-0.009698	1.314811
41.442936	441.089948	16.115098	-0.009732	1.312440
41.375690	439.121399	16.120103	-0.009720	1.310043
41.366241	437.159123	16.125107	-0.009719	1.307673
41.392813	435.152361	16.130112	-0.009725	1.305260
41.255514	433.215747	16.135117	-0.009700	1.302860
41.309205	431.199814	16.140122	-0.009711	1.300439
41.310380	429.216630	16.145127	-0.009711	1.298031
41.164131	427.268149	16.150131	-0.009686	1.295599
41.130967	425.294052	16.155136	-0.009680	1.293178
41.014370	423.344845	16.160141	-0.009660	1.290749
41.079153	421.333440	16.165146	-0.009672	1.288315
40.913896	419.394445	16.170151	-0.009643	1.285868
40.995438	417.378044	16.175155	-0.009658	1.283426
40.994578	415.401758	16.180160	-0.009658	1.280993
40.981673	413.425504	16.185165	-0.009657	1.278551
40.980775	411.430502	16.190170	-0.009657	1.276086
40.906143	409.470490	16.195175	-0.009644	1.273628
40.979864	407.467635	16.200179	-0.009658	1.271176
41.058709	405.459617	16.205184	-0.009673	1.268714
41.033874	403.495732	16.210189	-0.009669	1.266259
40.891396	401.562817	16.215194	-0.009644	1.263787
40.731701	399.652085	16.220199	-0.009615	1.261330
40.892096	397.603302	16.225203	-0.009645	1.258834
40.804168	395.648081	16.230208	-0.009630	1.256342
40.960411	393.604807	16.235213	-0.009658	1.253841
40.788020	391.698521	16.240218	-0.009628	1.251365
40.747178	389.720450	16.245223	-0.009621	1.248850
40.666849	387.766015	16.250227	-0.009607	1.246344
40.656148	385.780518	16.255232	-0.009606	1.243823
40.822802	383.754154	16.260237	-0.009636	1.241322
40.875073	381.759430	16.265242	-0.009646	1.238806
40.870118	379.780993	16.270247	-0.009646	1.236281
40.707713	377.863259	16.275251	-0.009617	1.233760
40.782766	375.854387	16.280256	-0.009631	1.231221
40.764315	373.889006	16.285261	-0.009629	1.228691
40.632542	371.952246	16.290266	-0.009605	1.226143
40.867533	369.903408	16.295271	-0.009648	1.223608
40.640954	368.010584	16.300275	-0.009608	1.221064
40.528480	366.061344	16.305280	-0.009588	1.218492
40.397146	364.108532	16.310285	-0.009565	1.215902
40.408185	362.130123	16.315290	-0.009568	1.213337
40.331480	360.158114	16.320295	-0.009554	1.210735
40.156917	358.235522	16.325299	-0.009523	1.208148
40.367773	356.165055	16.330304	-0.009562	1.205536
40.373695	354.202685	16.335309	-0.009564	1.202967
40.275005	352.244827	16.340314	-0.009546	1.200352
40.381072	350.236481	16.345319	-0.009566	1.197757
40.172407	348.307679	16.350323	-0.009529	1.195118
40.306002	346.308312	16.355328	-0.009554	1.192536
40.155257	344.364469	16.360333	-0.009527	1.189892
40.245261	342.374651	16.365338	-0.009544	1.187292
40.141996	340.402085	16.370343	-0.009526	1.184620
40.115669	338.482496	16.375347	-0.009521	1.182048
40.148308	336.462119	16.380352	-0.009528	1.179363
40.099010	334.513684	16.385357	-0.009520	1.176730
40.057773	332.531355	16.390362	-0.009513	1.174050
39.979738	330.589802	16.395367	-0.009499	1.171401
39.906279	328.618428	16.400371	-0.009486	1.168708
39.933542	326.635034	16.405376	-0.009492	1.166040
39.879605	324.680239	16.410381	-0.009483	1.163366
39.788538	322.726691	16.415386	-0.009467	1.160671
39.838463	320.740379	16.420391	-0.009476	1.157991
39.970193	318.705893	16.425395	-0.009501	1.155277
39.682228	316.837605	16.430400	-0.009449	1.152586
39.771361	314.820137	16.435405	-0.009466	1.149863
39.720119	312.872658	16.440410	-0.009457	1.147163
39.719464	310.893086	16.445415	-0.009458	1.144437
39.550603	308.983958	16.450419	-0.009428	1.141721
39.672650	306.961998	16.455424	-0.009450	1.138981
39.512348	305.019616	16.460429	-0.009422	1.136210
39.686872	302.991249	16.465434	-0.009454	1.133473
39.624322	301.024850	16.470439	-0.009443	1.130702
39.623381	299.064826	16.475443	-0.009444	1.127963
39.614378	297.070734	16.480448	-0.009443	1.125165
39.680408	295.119909	16.485453	-0.009455	1.122458
39.525645	293.181024	16.490458	-0.009428	1.119654
39.479686	291.220255	16.495463	-0.009420	1.116864
39.437502	289.255682	16.500467	-0.009413	1.114065
39.249975	287.348203	16.505472	-0.009380	1.111268
39.484027	285.301256	16.510477	-0.009422	1.108472
39.619179	283.277083	16.515482	-0.009447	1.105653
39.376184	281.421981	16.520487	-0.009404	1.102883
39.355898	279.443225	16.525491	-0.009401	1.100038
39.408551	277.454119	16.530496	-0.009411	1.097207
39.404832	275.487764	16.535501	-0.009411	1.094373
39.302011	273.547071	16.540506	-0.009393	1.091520
39.180348	271.622302	16.545511	-0.009372	1.088673
39.218922	269.623386	16.550515	-0.009379	1.085791
39.287181	267.653565	16.555520	-0.009392	1.082959
39.406081	265.636030	16.560525	-0.009414	1.080075
39.292527	263.716066	16.565530	-0.009394	1.077209
39.263783	261.756017	16.570535	-0.009389	1.074319
39.231837	259.802683	16.575539	-0.009384	1.071430
39.020213	257.907676	16.580544	-0.009347	1.068527
39.025824	255.933690	16.585549	-0.009348	1.065611
38.783097	254.053337	16.590554	-0.009305	1.062698
39.025300	251.992422	16.595559	-0.009349	1.059758
38.988645	250.022768	16.600563	-0.009343	1.056802
39.066094	248.042560	16.605568	-0.009358	1.053881
38.862449	246.127509	16.610573	-0.009321	1.050904
38.922731	244.158244	16.615578	-0.009333	1.047974
38.803304	242.215703	16.620583	-0.009312	1.044982
38.647713	240.313195	16.625587	-0.009284	1.042024
38.801860	238.279890	16.630592	-0.009313	1.039021
38.670878	236.354850	16.635597	-0.009290	1.036024
38.537210	234.442872	16.640602	-0.009266	1.033037
38.416149	232.501340	16.645607	-0.009245	1.030003
38.413054	230.528339	16.650611	-0.009245	1.026974
38.436853	228.564482	16.655616	-0.009250	1.023965
38.269718	226.645519	16.660621	-0.009220	1.020914
38.439511	224.632409	16.665626	-0.009251	1.017888
38.353856	222.678755	16.670631	-0.009236	1.014809
38.283006	220.742433	16.675635	-0.009224	1.011755
38.291589	218.776059	16.680640	-0.009226	1.008688
38.265413	216.821777	16.685645	-0.009222	1.005612
38.299925	214.849968	16.690650	-0.009229	1.002532
38.333704	212.875230	16.695655	-0.009235	0.999437
38.287706	210.926002	16.700659	-0.009228	0.996329
38.112173	209.042755	16.705664	-0.009196	0.993245
37.991130	207.105044	16.710669	-0.009175	0.990095
37.979789	205.144732	16.715674	-0.009174	0.986959
37.879554	203.215955	16.720679	-0.009156	0.983815
37.985136	201.204705	16.725683	-0.009176	0.980642
37.991860	199.232737	16.730688	-0.009178	0.977468
37.896674	197.313271	16.735693	-0.009161	0.974310
37.818011	195.372837	16.740698	-0.009147	0.971118
37.799989	193.429142	16.745703	-0.009145	0.967944
37.713766	191.493534	16.750707	-0.009130	0.964734
37.907985	189.470125	16.755712	-0.009165	0.961530
37.751536	187.571956	16.760717	-0.009138	0.958320
37.733250	185.614899	16.765722	-0.009135	0.955081
37.648340	183.685145	16.770727	-0.009120	0.951838
37.523539	181.787643	16.775731	-0.009098	0.948615
37.509267	179.833312	16.780736	-0.009096	0.945350
37.652618	177.839313	16.785741	-0.009122	0.942099
37.531173	175.924671	16.790746	-0.009101	0.938816
37.558910	173.952919	16.795751	-0.009107	0.935512
37.415321	172.045363	16.800755	-0.009081	0.932204
37.439816	170.093992	16.805760	-0.009086	0.928909
37.302272	168.173248	16.810765	-0.009062	0.925559
37.488782	166.169981	16.815770	-0.009096	0.922248
37.292936	164.288392	16.820775	-0.009061	0.918906
37.210729	162.364253	16.825779	-0.009047	0.915546
37.229669	160.402142	16.830784	-0.009051	0.912169
37.226421	158.468180	16.835789	-0.009051	0.908815
37.224150	156.521444	16.840794	-0.009051	0.905427
37.156722	154.597668	16.845799	-0.009040	0.902027
37.183827	152.635459	16.850803	-0.009045	0.898604
37.142679	150.705768	16.855808	-0.009038	0.895184
37.106068	148.770714	16.860813	-0.009032	0.891744
37.077424	146.841786	16.865818	-0.009028	0.888306
37.103463	144.892499	16.870823	-0.009033	0.884852
37.049599	142.967152	16.875827	-0.009024	0.881378
37.005642	141.041964	16.880832	-0.009016	0.877897
36.839695	139.165078	16.885837	-0.008987	0.874412
36.951406	137.178517	16.890842	-0.009008	0.870890
36.904264	135.252062	16.895847	-0.009000	0.867363
36.778631	133.374783	16.900851	-0.008978	0.863860
36.874548	131.397692	16.905856	-0.008995	0.860302
36.808758	129.476420	16.910861	-0.008984	0.856729
36.714378	127.578908	16.915866	-0.008968	0.853165
36.651962	125.657758	16.920871	-0.008957	0.849564
36.715314	123.705830	16.925875	-0.008969	0.845972
36.807519	121.742171	16.930880	-0.008986	0.842361
36.447077	119.934440	16.935885	-0.008922	0.838731
36.372488	118.026459	16.940890	-0.008909	0.835084
36.507480	116.041279	16.945895	-0.008934	0.831414
36.464896	114.121923	16.950899	-0.008926	0.827734
36.453566	112.210776	16.955904	-0.008925	0.824075
36.436016	110.282020	16.960909	-0.008922	0.820361
36.384583	108.368912	16.965914	-0.008914	0.816638
36.237056	106.481848	16.970919	-0.008888	0.812883
36.216835	104.564039	16.975923	-0.008884	0.809138
36.288155	102.614923	16.980928	-0.008898	0.805376
36.280882	100.686502	16.985933	-0.008897	0.801584
36.130225	98.813330	16.990938	-0.008871	0.797784
36.169366	96.884804	16.995943	-0.008878	0.793987
35.885222	95.055247	17.000947	-0.008827	0.790144
35.896477	93.131258	17.005952	-0.008830	0.786300
35.880385	91.215866	17.010957	-0.008828	0.782435
35.814756	89.311909	17.015962	-0.008816	0.778538
35.844560	87.378478	17.020967	-0.008822	0.774631
35.833971	85.471209	17.025971	-0.008821	0.770728
35.677586	83.606869	17.030976	-0.008793	0.766788
35.655390	81.700203	17.035981	-0.008790	0.762838
35.735190	79.754892	17.040986	-0.008805	0.758861
35.720331	77.857761	17.045991	-0.008803	0.754895
35.443607	76.034185	17.050995	-0.008753	0.750870
35.560379	74.093219	17.056000	-0.008775	0.746866
35.391904	72.239015	17.061005	-0.008745	0.742812
35.403319	70.319298	17.066010	-0.008748	0.738731
35.491782	68.378271	17.071015	-0.008764	0.734639
35.356893	66.522765	17.076019	-0.008740	0.730540
35.223232	64.668110	17.081024	-0.008717	0.726421
35.198735	62.774924	17.086029	-0.008713	0.722278
35.049732	60.913321	17.091034	-0.008687	0.718084
34.929527	59.059336	17.096039	-0.008665	0.713905
34.981796	57.138979	17.101043	-0.008675	0.709688
34.893037	55.284379	17.106048	-0.008660	0.705482
34.894537	53.384037	17.111053	-0.008661	0.701220
34.819134	51.513767	17.116058	-0.008648	0.696938
34.842501	49.608315	17.121063	-0.008653	0.692629
34.713070	47.770467	17.126067	-0.008630	0.688325
34.689909	45.889329	17.131072	-0.008626	0.683979
34.684457	44.005973	17.136077	-0.008626	0.679616
34.697599	42.116754	17.141082	-0.008629	0.675225
34.475808	40.317803	17.146087	-0.008589	0.670825
34.321799	38.481604	17.151091	-0.008562	0.666363
34.317617	36.595985	17.156096	-0.008562	0.661879
34.285836	34.720622	17.161101	-0.008557	0.657365
34.276558	32.851436	17.166106	-0.008555	0.652855
34.196589	31.003908	17.171111	-0.008542	0.648305
34.204140	29.136605	17.176115	-0.008544	0.643750
34.063880	27.308998	17.181120	-0.008519	0.639132
33.787255	25.562196	17.186125	-0.008469	0.634563
33.782180	23.822200	17.191130	-0.008469	0.630217
