Mon Jan 13 19:20:22 2020

Number of Points = 3013
Depth (nm)	Load (µN)	Time (s)	Depth (V)	Load (V)
0.671339	0.125161	0.000000	0.000066	0.494556

0.799152	0.081741	0.005005	0.000043	0.494562
0.874332	0.053521	0.010010	0.000029	0.494558
0.807315	0.078860	0.015014	0.000041	0.494565
0.807686	0.075513	0.020019	0.000041	0.494556
0.734180	0.103152	0.025024	0.000054	0.494562
0.835474	0.064665	0.030029	0.000035	0.494555
0.930121	-0.010624	0.035034	0.000018	0.494422
0.889253	-0.053964	0.040038	0.000025	0.494238
0.726619	0.004095	0.045043	0.000054	0.494242
0.776999	-0.015746	0.050048	0.000045	0.494237
0.896513	-0.147975	0.055053	0.000023	0.493949
0.913109	-0.157197	0.060058	0.000020	0.493940
0.925931	-0.232917	0.065062	0.000018	0.493713
0.796186	-0.220344	0.070067	0.000041	0.493608
0.771160	-0.280033	0.075072	0.000045	0.493390
0.961273	-0.375471	0.080077	0.000011	0.493300
0.879824	-0.438103	0.085082	0.000025	0.493008
0.760896	-0.439035	0.090086	0.000047	0.492872
0.884506	-0.528175	0.095091	0.000024	0.492727
0.806855	-0.603337	0.100096	0.000038	0.492399
0.666455	-0.619316	0.105101	0.000063	0.492190
0.769430	-0.724543	0.110106	0.000044	0.491969
0.770532	-0.804498	0.115110	0.000044	0.491715
0.710705	-0.863125	0.120115	0.000054	0.491460
0.724064	-0.966329	0.125120	0.000052	0.491144
0.772143	-1.073297	0.130125	0.000043	0.490855
0.576766	-1.099048	0.135130	0.000078	0.490551
0.828813	-1.276818	0.140134	0.000032	0.490266
0.766025	-1.366280	0.145139	0.000043	0.489907
0.640167	-1.432240	0.150144	0.000066	0.489552
0.653785	-1.543507	0.155149	0.000063	0.489209
0.573009	-1.623986	0.160154	0.000078	0.488857
0.364539	-1.660110	0.165158	0.000115	0.488504
0.344155	-1.761003	0.170163	0.000119	0.488155
0.470718	-1.899431	0.175168	0.000096	0.487852
0.399203	-2.001585	0.180173	0.000108	0.487440
0.315242	-2.097440	0.185178	0.000123	0.487034
0.363024	-2.231948	0.190182	0.000114	0.486653
0.368437	-2.364620	0.195187	0.000113	0.486229
0.151219	-2.423913	0.200192	0.000152	0.485788
0.000862	-2.489225	0.205197	0.000179	0.485404
0.095824	-2.658903	0.210202	0.000162	0.484961
0.049319	-2.784109	0.215206	0.000170	0.484500
-0.023588	-2.882161	0.220211	0.000183	0.484097
-0.103583	-3.007664	0.225216	0.000197	0.483596
-0.232627	-3.086488	0.230221	0.000221	0.483191
-0.819176	-3.011606	0.235226	0.000326	0.482760
-1.462133	-2.901338	0.240230	0.000442	0.482379
-1.780372	-2.901868	0.245235	0.000500	0.482011
-1.916103	-2.953150	0.250240	0.000524	0.481686
-2.523961	-2.840616	0.255245	0.000634	0.481353
-2.526395	-2.925037	0.260250	0.000634	0.481074
-2.948347	-2.861777	0.265254	0.000710	0.480794
-2.972801	-2.933818	0.270259	0.000714	0.480530
-3.475510	-2.830465	0.275264	0.000805	0.480288
-3.452090	-2.941775	0.280269	0.000800	0.479949
-3.756749	-2.905842	0.285274	0.000855	0.479715
-3.858606	-2.937999	0.290278	0.000873	0.479492
-4.244994	-2.862227	0.295283	0.000943	0.479293
-4.324944	-2.915531	0.300288	0.000957	0.479025
-4.557997	-2.902373	0.305293	0.000999	0.478799
-4.693624	-2.901286	0.310298	0.001023	0.478646
-5.148663	-2.816276	0.315302	0.001106	0.478397
-5.176145	-2.855152	0.320307	0.001110	0.478238
-5.383160	-2.827679	0.325312	0.001147	0.478089
-5.439897	-2.870151	0.330317	0.001158	0.477883
-5.642352	-2.819399	0.335322	0.001194	0.477816
-5.729989	-2.882140	0.340326	0.001210	0.477507
-5.727583	-2.923013	0.345331	0.001209	0.477376
-6.023924	-2.873464	0.350336	0.001262	0.477195
-6.262456	-2.861140	0.355341	0.001305	0.476958
-6.271676	-2.883647	0.360346	0.001307	0.476874
-6.559140	-2.862963	0.365350	0.001358	0.476608
-6.409318	-2.934995	0.370355	0.001331	0.476545
-6.879103	-2.859104	0.375360	0.001416	0.476248
-6.968944	-2.843921	0.380365	0.001432	0.476195
-7.301896	-2.805281	0.385370	0.001492	0.475934
-7.027197	-2.916575	0.390374	0.001442	0.475888
-7.595330	-2.793637	0.395379	0.001544	0.475631
-7.340188	-2.896067	0.400384	0.001498	0.475591
-7.956414	-2.760560	0.405389	0.001609	0.475320
-7.527310	-2.920620	0.410394	0.001532	0.475293
-8.309113	-2.735743	0.415398	0.001673	0.474991
-7.906444	-2.877350	0.420403	0.001600	0.474994
-8.272881	-2.829741	0.425408	0.001666	0.474723
-8.179415	-2.877048	0.430413	0.001649	0.474677
-8.622447	-2.795127	0.435418	0.001728	0.474430
-8.385811	-2.899051	0.440422	0.001685	0.474364
-8.813142	-2.812958	0.445427	0.001762	0.474149
-8.957678	-2.789004	0.450432	0.001788	0.474060
-9.041074	-2.809343	0.455437	0.001803	0.473896
-9.227292	-2.793667	0.460442	0.001837	0.473730
-9.428624	-2.727718	0.465446	0.001873	0.473714
-9.473313	-2.796027	0.470451	0.001881	0.473435
-9.465648	-2.797506	0.475456	0.001879	0.473440
-9.769588	-2.768948	0.480461	0.001934	0.473179
-9.852083	-2.755864	0.485466	0.001949	0.473126
-9.866391	-2.791046	0.490470	0.001951	0.472993
-10.171879	-2.720881	0.495475	0.002006	0.472869
-10.071139	-2.786755	0.500480	0.001988	0.472769
-10.493630	-2.704489	0.505485	0.002064	0.472546
-10.303133	-2.777519	0.510490	0.002029	0.472528
-10.666596	-2.740473	0.515494	0.002095	0.472224
-10.540631	-2.786557	0.520499	0.002072	0.472220
-10.768522	-2.781288	0.525504	0.002113	0.471970
-10.685142	-2.831998	0.530509	0.002097	0.471899
-10.959857	-2.808255	0.535514	0.002147	0.471655
-10.962523	-2.824461	0.540518	0.002147	0.471599
-11.394374	-2.749605	0.545523	0.002225	0.471341
-11.358468	-2.785751	0.550528	0.002218	0.471263
-11.545292	-2.766165	0.555533	0.002252	0.471109
-11.568879	-2.801236	0.560538	0.002256	0.470964
-11.843491	-2.744560	0.565542	0.002305	0.470831
-11.796078	-2.813191	0.570547	0.002296	0.470658
-11.881125	-2.817491	0.575552	0.002312	0.470544
-12.127211	-2.786849	0.580557	0.002356	0.470356
-12.185523	-2.787034	0.585562	0.002366	0.470288
-12.361020	-2.804941	0.590566	0.002398	0.470020
-12.453842	-2.784827	0.595571	0.002414	0.469979
-12.658442	-2.793238	0.600576	0.002451	0.469709
-12.687004	-2.781395	0.605581	0.002456	0.469716
-12.873287	-2.808319	0.610586	0.002489	0.469406
-12.907806	-2.799169	0.615590	0.002495	0.469397
-13.308130	-2.743797	0.620595	0.002568	0.469109
-13.229015	-2.774867	0.625600	0.002553	0.469099
-13.392145	-2.785231	0.630605	0.002582	0.468871
-13.266656	-2.859293	0.635610	0.002560	0.468772
-13.479391	-2.852667	0.640614	0.002598	0.468543
-13.861374	-2.738857	0.645619	0.002667	0.468473
-13.792993	-2.823101	0.650624	0.002654	0.468271
-14.034379	-2.771469	0.655629	0.002697	0.468159
-13.914544	-2.853326	0.660634	0.002676	0.468027
-14.394308	-2.712444	0.665638	0.002762	0.467932
-14.133316	-2.856140	0.670643	0.002715	0.467759
-14.635767	-2.727706	0.675648	0.002805	0.467595
-14.523279	-2.808447	0.680653	0.002785	0.467458
-14.939645	-2.712444	0.685658	0.002860	0.467287
-14.922135	-2.735484	0.690662	0.002856	0.467231
-15.341315	-2.667495	0.695667	0.002932	0.466962
-15.088474	-2.757911	0.700672	0.002886	0.466959
-15.521672	-2.679532	0.705677	0.002964	0.466708
-15.312880	-2.766815	0.710682	0.002926	0.466663
-15.657799	-2.701470	0.715686	0.002988	0.466473
-15.516147	-2.791722	0.720691	0.002963	0.466338
-15.804523	-2.734811	0.725696	0.003014	0.466187
-15.881832	-2.755292	0.730701	0.003028	0.466027
-16.118873	-2.693906	0.735706	0.003071	0.465952
-16.194827	-2.739602	0.740710	0.003084	0.465708
-16.278587	-2.712107	0.745715	0.003099	0.465702
-16.309358	-2.789105	0.750720	0.003105	0.465405
-16.489724	-2.725843	0.755725	0.003137	0.465405
-16.610051	-2.779680	0.760730	0.003159	0.465079
-16.774869	-2.719712	0.765734	0.003188	0.465086
-17.020669	-2.713346	0.770739	0.003232	0.464814
-16.953714	-2.751380	0.775744	0.003220	0.464766
-17.037167	-2.788083	0.780749	0.003235	0.464542
-17.319288	-2.714215	0.785754	0.003286	0.464456
-17.500213	-2.704262	0.790758	0.003318	0.464274
-17.862460	-2.613180	0.795763	0.003384	0.464150
-17.524800	-2.754929	0.800768	0.003322	0.464074
-17.993066	-2.661170	0.805773	0.003407	0.463832
-17.933717	-2.682917	0.810778	0.003396	0.463831
-18.309794	-2.635311	0.815782	0.003464	0.463542
-17.977314	-2.759627	0.820787	0.003403	0.463519
-18.408052	-2.675546	0.825792	0.003481	0.463289
-18.363822	-2.712976	0.830797	0.003473	0.463215
-18.565619	-2.689041	0.835802	0.003509	0.463055
-18.664625	-2.685554	0.840806	0.003527	0.462949
-18.782154	-2.683388	0.845811	0.003548	0.462816
-19.059970	-2.645370	0.850816	0.003598	0.462612
-19.138221	-2.622725	0.855821	0.003612	0.462597
-19.096287	-2.726252	0.860826	0.003604	0.462294
-19.297234	-2.653823	0.865830	0.003640	0.462301
-19.579725	-2.644949	0.870835	0.003691	0.461992
-19.611160	-2.637128	0.875840	0.003696	0.461982
-19.439701	-2.757223	0.880845	0.003665	0.461779
-19.716759	-2.688741	0.885850	0.003715	0.461680
-19.864163	-2.706308	0.890854	0.003741	0.461443
-20.190117	-2.617346	0.895859	0.003800	0.461355
-19.994914	-2.737163	0.900864	0.003765	0.461181
-20.360338	-2.650028	0.905869	0.003830	0.461039
-20.396617	-2.679954	0.910874	0.003837	0.460894
-20.774716	-2.596387	0.915878	0.003905	0.460724
-20.528111	-2.704060	0.920883	0.003860	0.460655
-21.015834	-2.598538	0.925888	0.003948	0.460427
-20.656236	-2.738649	0.930893	0.003883	0.460383
-21.409705	-2.557723	0.935898	0.004019	0.460092
-20.882359	-2.743145	0.940902	0.003923	0.460096
-21.394388	-2.645302	0.945907	0.004016	0.459812
-21.344324	-2.670403	0.950912	0.004006	0.459788
-21.906938	-2.542341	0.955917	0.004108	0.459547
-21.598847	-2.673560	0.960922	0.004052	0.459471
-21.801293	-2.647037	0.965926	0.004088	0.459317
-21.863911	-2.669379	0.970931	0.004100	0.459166
-22.125742	-2.604796	0.975936	0.004147	0.459071
-22.271451	-2.618537	0.980941	0.004173	0.458848
-22.199705	-2.657268	0.985946	0.004160	0.458803
-22.522733	-2.618213	0.990950	0.004218	0.458546
-22.712802	-2.553115	0.995955	0.004252	0.458541
-22.694824	-2.639429	1.000960	0.004248	0.458266

-22.905844	-2.619671	1.010957	0.004286	0.458080
-22.892358	-2.656024	1.020954	0.004283	0.457973
-23.216057	-2.617709	1.030950	0.004341	0.457714
-23.200140	-2.645180	1.040947	0.004338	0.457641
-23.423439	-2.565566	1.050944	0.004378	0.457646
-23.283112	-2.617497	1.060941	0.004352	0.457641
-23.337850	-2.599952	1.070938	0.004362	0.457637
-23.418951	-2.593292	1.080934	0.004376	0.457564
-23.335004	-2.639326	1.090931	0.004361	0.457510
-23.269936	-2.647672	1.100928	0.004348	0.457563
-23.354736	-2.624377	1.110925	0.004363	0.457543
-23.272284	-2.626734	1.120922	0.004348	0.457638
-23.320452	-2.609315	1.130918	0.004356	0.457643
-23.166998	-2.664126	1.140915	0.004328	0.457643
-23.253341	-2.631634	1.150912	0.004343	0.457653
-23.257796	-2.632462	1.160909	0.004344	0.457647
-23.208246	-2.653473	1.170906	0.004334	0.457638
-23.016421	-2.639902	1.180902	0.004299	0.457922
-22.825885	-2.691788	1.190899	0.004264	0.457977
-22.855508	-2.680922	1.200896	0.004269	0.457981
-22.882568	-2.674386	1.210893	0.004274	0.457974
-22.862091	-2.679670	1.220890	0.004270	0.457983
-22.919287	-2.662005	1.230886	0.004280	0.457977
-22.812658	-2.645869	1.240883	0.004260	0.458166
-22.516819	-2.733280	1.250880	0.004206	0.458227
-22.687694	-2.673620	1.260877	0.004237	0.458228
-22.636008	-2.693091	1.270874	0.004227	0.458226
-22.743100	-2.632550	1.280870	0.004246	0.458308
-22.364614	-2.700063	1.290867	0.004177	0.458538
-22.479199	-2.659752	1.300864	0.004197	0.458541
-22.306468	-2.720922	1.310861	0.004166	0.458543
-22.295195	-2.725966	1.320858	0.004163	0.458542
-22.024407	-2.765968	1.330854	0.004114	0.458736
-22.084083	-2.714744	1.340851	0.004124	0.458843
-22.085167	-2.714398	1.350848	0.004124	0.458846
-22.192268	-2.676082	1.360845	0.004143	0.458850
-22.164493	-2.663238	1.370842	0.004138	0.458931
-21.990176	-2.656438	1.380838	0.004106	0.459169
-21.831660	-2.710868	1.390835	0.004077	0.459177
-21.935717	-2.677072	1.400832	0.004095	0.459170
-21.693335	-2.688238	1.410829	0.004051	0.459429
-21.642402	-2.697009	1.420826	0.004041	0.459463
-21.535373	-2.732036	1.430822	0.004021	0.459475
-21.694772	-2.678105	1.440819	0.004050	0.459470
-21.464483	-2.723968	1.450816	0.004008	0.459595
-21.276925	-2.734905	1.460813	0.003974	0.459788
-21.362215	-2.706393	1.470810	0.003989	0.459785
-21.451528	-2.677269	1.480806	0.004004	0.459779
-21.196319	-2.756034	1.490803	0.003958	0.459821
-21.069483	-2.721272	1.500800	0.003934	0.460097
-21.060677	-2.724652	1.510797	0.003932	0.460099
-21.140510	-2.696522	1.520794	0.003946	0.460102
-21.165494	-2.677632	1.530790	0.003951	0.460139
-20.945307	-2.673827	1.540787	0.003910	0.460422
-20.899173	-2.688397	1.550784	0.003902	0.460431
-20.902252	-2.687458	1.560781	0.003902	0.460433
-20.763791	-2.688874	1.570778	0.003876	0.460599
-20.737289	-2.658304	1.580774	0.003871	0.460739
-20.628450	-2.700977	1.590771	0.003851	0.460727
-20.812932	-2.623403	1.600768	0.003884	0.460772
-20.319255	-2.717731	1.610765	0.003794	0.461049
-20.336741	-2.712141	1.620762	0.003797	0.461050
-20.349218	-2.711187	1.630758	0.003799	0.461041
-20.408751	-2.690684	1.640755	0.003809	0.461042
-20.172290	-2.698104	1.650752	0.003766	0.461305
-20.216409	-2.669725	1.660749	0.003774	0.461352
-20.040122	-2.732438	1.670746	0.003741	0.461353
-20.144201	-2.695548	1.680742	0.003760	0.461356
-19.947578	-2.702251	1.690739	0.003724	0.461574
-19.888989	-2.694061	1.700736	0.003713	0.461676
-19.938953	-2.677481	1.710733	0.003722	0.461675
-19.814458	-2.720384	1.720730	0.003699	0.461681
-19.763704	-2.696927	1.730726	0.003689	0.461825
-19.583131	-2.717465	1.740723	0.003656	0.461976
-19.682712	-2.682080	1.750720	0.003674	0.461980
-19.645474	-2.694940	1.760717	0.003666	0.461983
-19.462493	-2.730698	1.770714	0.003633	0.462085
-19.171056	-2.771010	1.780710	0.003580	0.462301
-19.240728	-2.749760	1.790707	0.003592	0.462293
-19.395095	-2.695265	1.800704	0.003620	0.462296
-19.311044	-2.723931	1.810701	0.003604	0.462302
-19.144323	-2.717658	1.820698	0.003573	0.462527
-19.094488	-2.709904	1.830694	0.003564	0.462617
-19.106203	-2.706818	1.840691	0.003566	0.462616
-19.018457	-2.738397	1.850688	0.003549	0.462616
-18.927595	-2.695683	1.860685	0.003533	0.462875
-18.773721	-2.730795	1.870682	0.003504	0.462943
-18.939610	-2.671720	1.880678	0.003534	0.462948
-18.788982	-2.726968	1.890675	0.003506	0.462943
-18.656366	-2.711189	1.900672	0.003482	0.463160
-18.531000	-2.740669	1.910669	0.003459	0.463213
-18.650929	-2.699728	1.920666	0.003480	0.463211
-18.571633	-2.729149	1.930662	0.003465	0.463209
-18.437709	-2.696825	1.940659	0.003441	0.463483
-18.338498	-2.721290	1.950656	0.003423	0.463522
-18.330073	-2.724520	1.960653	0.003421	0.463524
-18.354317	-2.717643	1.970650	0.003425	0.463521
-18.234655	-2.674967	1.980646	0.003403	0.463813
-18.038387	-2.741941	1.990643	0.003367	0.463824
-18.183679	-2.691437	2.000640	0.003392	0.463824
-17.965231	-2.764037	2.010637	0.003353	0.463842
-17.803692	-2.730090	2.020634	0.003323	0.464155
-17.656976	-2.782676	2.030630	0.003296	0.464154
-17.978959	-2.670953	2.040627	0.003354	0.464151
-17.604596	-2.802550	2.050624	0.003286	0.464155
-17.794312	-2.698632	2.060621	0.003320	0.464284
-17.514548	-2.748359	2.070618	0.003269	0.464454
-17.483322	-2.760514	2.080614	0.003263	0.464452
-17.387935	-2.795956	2.090611	0.003245	0.464449
-17.495542	-2.756773	2.100608	0.003264	0.464456
-17.327021	-2.734449	2.110605	0.003233	0.464737
-17.321166	-2.727293	2.120602	0.003232	0.464771
-17.146730	-2.789657	2.130598	0.003200	0.464771
-17.252445	-2.754158	2.140595	0.003219	0.464768
-16.963102	-2.785479	2.150592	0.003166	0.465011
-16.992299	-2.757787	2.160589	0.003171	0.465073
-16.928525	-2.779093	2.170586	0.003159	0.465080
-16.918052	-2.782285	2.180582	0.003156	0.465084
-16.853224	-2.807005	2.190579	0.003144	0.465081
-16.771961	-2.754500	2.200576	0.003129	0.465360
-16.585732	-2.806787	2.210573	0.003095	0.465408
-16.766165	-2.744588	2.220570	0.003127	0.465406
-16.548601	-2.821889	2.230566	0.003088	0.465406
-16.622174	-2.774632	2.240563	0.003101	0.465482
-16.356093	-2.799624	2.250560	0.003052	0.465718
-16.358554	-2.798872	2.260557	0.003052	0.465721
-16.303812	-2.819128	2.270554	0.003042	0.465720
-16.460802	-2.765682	2.280550	0.003070	0.465716
-16.172655	-2.777529	2.290547	0.003017	0.466024
-16.240287	-2.751854	2.300544	0.003029	0.466033
-16.102466	-2.804649	2.310541	0.003004	0.466021
-16.122866	-2.793047	2.320538	0.003007	0.466039
-15.872077	-2.793332	2.330534	0.002961	0.466341
-15.950084	-2.767301	2.340531	0.002975	0.466339
-15.991706	-2.751157	2.350528	0.002982	0.466346
-16.034537	-2.698335	2.360525	0.002989	0.466477
-15.694214	-2.764677	2.370522	0.002928	0.466662
-15.745668	-2.747472	2.380518	0.002936	0.466661
-15.744424	-2.747773	2.390515	0.002936	0.466665
-15.500966	-2.752107	2.400512	0.002891	0.466944
-15.436486	-2.770551	2.410509	0.002879	0.466961
-15.413708	-2.778493	2.420506	0.002875	0.466964
-15.447546	-2.768597	2.430502	0.002881	0.466960
-15.202844	-2.778139	2.440499	0.002836	0.467223
-15.163325	-2.777080	2.450496	0.002828	0.467276
-15.055052	-2.814660	2.460493	0.002808	0.467281
-15.109987	-2.794912	2.470490	0.002818	0.467285
-15.116565	-2.795245	2.480486	0.002819	0.467279
-14.914313	-2.776193	2.490483	0.002782	0.467587
-14.808706	-2.813305	2.500480	0.002762	0.467590
-15.031548	-2.732435	2.510477	0.002802	0.467601
-14.914709	-2.766789	2.520474	0.002781	0.467627
-14.634427	-2.776903	2.530470	0.002729	0.467930
-14.575287	-2.798606	2.540467	0.002718	0.467930
-14.675925	-2.764780	2.550464	0.002736	0.467927
-14.658529	-2.770660	2.560461	0.002733	0.467930
-14.431977	-2.784906	2.570458	0.002691	0.468155
-14.386252	-2.800744	2.580454	0.002683	0.468159
-14.426479	-2.787349	2.590451	0.002689	0.468159
-14.398710	-2.793986	2.600448	0.002684	0.468172
-14.291544	-2.744352	2.610445	0.002664	0.468470
-14.105546	-2.810177	2.620442	0.002630	0.468472
-14.119875	-2.806577	2.630438	0.002632	0.468470
-14.151726	-2.787844	2.640435	0.002638	0.468498
-13.917446	-2.788437	2.650432	0.002595	0.468778
-13.765926	-2.842759	2.660429	0.002567	0.468777
-13.942355	-2.784239	2.670426	0.002599	0.468767
-13.936690	-2.781742	2.680422	0.002597	0.468785
-13.626140	-2.799955	2.690419	0.002541	0.469096
-13.638378	-2.796329	2.700416	0.002543	0.469096
-13.605444	-2.808266	2.710413	0.002536	0.469098
-13.591177	-2.813329	2.720410	0.002533	0.469101
-13.572322	-2.747389	2.730406	0.002529	0.469348
-13.302821	-2.827969	2.740403	0.002480	0.469400
-13.315596	-2.823736	2.750400	0.002482	0.469401
-13.144395	-2.883053	2.760397	0.002451	0.469408
-13.285525	-2.827635	2.770394	0.002476	0.469429
-12.879333	-2.885519	2.780390	0.002402	0.469720
-13.039440	-2.830711	2.790387	0.002431	0.469717
-12.991689	-2.847989	2.800384	0.002422	0.469718
-12.993240	-2.848260	2.810381	0.002421	0.469718
-12.991783	-2.845997	2.820378	0.002421	0.469730
-12.914135	-2.786698	2.830374	0.002406	0.470025
-12.755729	-2.843355	2.840371	0.002377	0.470025
-12.763269	-2.840435	2.850368	0.002378	0.470028
-12.852890	-2.771847	2.860365	0.002394	0.470155
-12.588469	-2.806514	2.870362	0.002346	0.470355
-12.520618	-2.832183	2.880358	0.002333	0.470352
-12.604396	-2.804473	2.890355	0.002348	0.470349
-12.277107	-2.856526	2.900352	0.002288	0.470565
-12.318463	-2.815647	2.910349	0.002295	0.470656
-12.354277	-2.804751	2.920346	0.002302	0.470652
-12.298018	-2.824123	2.930342	0.002291	0.470657
-12.170890	-2.840015	2.940339	0.002268	0.470757
-11.961764	-2.850821	2.950336	0.002229	0.470971
-12.019098	-2.830161	2.960333	0.002239	0.470975
-12.099681	-2.804603	2.970330	0.002253	0.470968
-11.965221	-2.819513	2.980326	0.002229	0.471080
-11.772246	-2.830339	2.990323	0.002194	0.471275
-11.742975	-2.841098	3.000320	0.002188	0.471276
-11.744431	-2.839308	3.010317	0.002188	0.471283
-11.617754	-2.887414	3.020314	0.002164	0.471274
-11.601368	-2.819536	3.030310	0.002161	0.471524
-11.370345	-2.879261	3.040307	0.002119	0.471600
-11.525449	-2.826257	3.050304	0.002146	0.471597
-11.674446	-2.774383	3.060301	0.002173	0.471597
-11.296375	-2.829283	3.070298	0.002104	0.471863
-11.148471	-2.869310	3.080294	0.002077	0.471906
-11.229949	-2.842300	3.090291	0.002091	0.471903
-11.109822	-2.885010	3.100288	0.002069	0.471905
-11.253061	-2.810029	3.110285	0.002095	0.471990
-10.958160	-2.846535	3.120282	0.002041	0.472218
-10.924514	-2.859034	3.130278	0.002035	0.472219
-10.989160	-2.837564	3.140275	0.002046	0.472217
-10.919536	-2.820138	3.150272	0.002033	0.472361
-10.877897	-2.783073	3.160269	0.002025	0.472537
-10.724203	-2.839687	3.170266	0.001997	0.472531
-10.682160	-2.855673	3.180262	0.001989	0.472530
-10.580749	-2.830869	3.190259	0.001970	0.472735
-10.584130	-2.790087	3.200256	0.001970	0.472871
-10.479923	-2.826714	3.210253	0.001951	0.472874
-10.337386	-2.881647	3.220250	0.001925	0.472861
-10.481278	-2.809410	3.230246	0.001950	0.472935
-10.228865	-2.842719	3.240243	0.001904	0.473124
-10.252152	-2.834751	3.250240	0.001908	0.473126
-10.083753	-2.893971	3.260237	0.001877	0.473129
-10.051428	-2.906705	3.270234	0.001871	0.473128
-9.917507	-2.874351	3.280230	0.001847	0.473396
-9.807024	-2.902914	3.290227	0.001826	0.473434
-9.728903	-2.930678	3.300224	0.001812	0.473436
-9.984340	-2.842737	3.310221	0.001857	0.473431
-9.890584	-2.877102	3.320218	0.001840	0.473430
-9.709694	-2.853671	3.330214	0.001807	0.473724
-9.598429	-2.891276	3.340211	0.001786	0.473732
-9.659535	-2.870156	3.350208	0.001797	0.473733
-9.680001	-2.852139	3.360205	0.001800	0.473772
-9.457994	-2.843684	3.370202	0.001760	0.474064
-9.522218	-2.822635	3.380198	0.001771	0.474061
-9.486854	-2.833070	3.390195	0.001764	0.474071
-9.314929	-2.830415	3.400192	0.001733	0.474285
-9.252129	-2.828925	3.410189	0.001721	0.474366
-9.137162	-2.869366	3.420186	0.001700	0.474369
-9.172763	-2.858823	3.430182	0.001706	0.474365
-9.039658	-2.829051	3.440179	0.001681	0.474624
-8.935265	-2.849200	3.450176	0.001662	0.474682
-8.869720	-2.874179	3.460173	0.001650	0.474678
-8.865305	-2.874796	3.470170	0.001649	0.474684
-8.800850	-2.850887	3.480166	0.001637	0.474842
-8.880484	-2.779569	3.490163	0.001651	0.474989
-8.734783	-2.831306	3.500160	0.001624	0.474990
-8.729303	-2.827629	3.510157	0.001622	0.475012
-8.494715	-2.820278	3.520154	0.001580	0.475314
-8.417483	-2.847549	3.530150	0.001565	0.475317
-8.315611	-2.883040	3.540147	0.001546	0.475321
-8.360787	-2.867280	3.550144	0.001554	0.475323
-8.220463	-2.859250	3.560141	0.001528	0.475517
-8.011546	-2.900901	3.570138	0.001490	0.475626
-7.994477	-2.906095	3.580134	0.001487	0.475632
-8.094167	-2.873469	3.590131	0.001504	0.475626
-8.150775	-2.854746	3.600128	0.001514	0.475624
-7.942632	-2.868810	3.610125	0.001476	0.475824
-7.856193	-2.865304	3.620122	0.001460	0.475940
-7.798453	-2.887627	3.630118	0.001449	0.475936
-7.890546	-2.855448	3.640115	0.001466	0.475938
-7.704145	-2.873668	3.650112	0.001431	0.476098
-7.605833	-2.865191	3.660109	0.001413	0.476244
-7.438743	-2.925339	3.670106	0.001383	0.476243
-7.582761	-2.874671	3.680102	0.001408	0.476245
-7.476037	-2.911918	3.690099	0.001389	0.476249
-7.314866	-2.902710	3.700096	0.001359	0.476471
-7.233091	-2.898841	3.710093	0.001344	0.476583
-7.102617	-2.949676	3.720090	0.001320	0.476569
-7.116509	-2.944877	3.730086	0.001322	0.476571
-7.301854	-2.879329	3.740083	0.001355	0.476575
-7.063140	-2.909915	3.750080	0.001312	0.476755
-6.785389	-2.973764	3.760077	0.001261	0.476871
-6.870735	-2.944825	3.770074	0.001276	0.476870
-6.830673	-2.959254	3.780070	0.001268	0.476872
-6.830809	-2.960566	3.790067	0.001268	0.476870
-6.883181	-2.916874	3.800064	0.001277	0.476956
-6.588691	-2.951885	3.810061	0.001223	0.477187
-6.479172	-2.991186	3.820058	0.001203	0.477187
-6.681835	-2.921415	3.830054	0.001239	0.477184
-6.667247	-2.926070	3.840051	0.001236	0.477189
-6.334513	-2.962035	3.850048	0.001176	0.477461
-6.322302	-2.953104	3.860045	0.001173	0.477507
-6.233328	-2.986610	3.870042	0.001157	0.477503
-6.345558	-2.947801	3.880038	0.001177	0.477503
-6.367884	-2.918350	3.890035	0.001180	0.477577
-6.017888	-2.964193	3.900032	0.001117	0.477837
-6.097670	-2.936450	3.910029	0.001131	0.477838
-6.098349	-2.939296	3.920026	0.001130	0.477831
-6.091101	-2.933182	3.930022	0.001129	0.477862
-5.891490	-2.937230	3.940019	0.001092	0.478084
-5.878096	-2.943327	3.950016	0.001089	0.478082
-5.864049	-2.948190	3.960013	0.001086	0.478085
-5.715884	-2.944174	3.970010	0.001059	0.478274
-5.581839	-2.954191	3.980006	0.001034	0.478400
-5.644361	-2.934839	3.990003	0.001045	0.478394
-5.667841	-2.927543	4.000000	0.001049	0.478393
-5.435991	-2.949243	4.009997	0.001007	0.478594
-5.382048	-2.937511	4.019994	0.000997	0.478699
-5.440876	-2.915585	4.029990	0.001007	0.478705
-5.356359	-2.946883	4.039987	0.000991	0.478703
-5.237836	-2.913012	4.049984	0.000969	0.478955
-5.122477	-2.932142	4.059981	0.000948	0.479029
-5.074559	-2.951741	4.069978	0.000939	0.479023
-5.018170	-2.972079	4.079974	0.000929	0.479024
-4.977682	-2.958247	4.089971	0.000921	0.479119
-4.859901	-2.937246	4.099968	0.000899	0.479329
-4.820187	-2.951289	4.109965	0.000892	0.479331
-4.795635	-2.961003	4.119962	0.000887	0.479330
-4.737845	-2.980177	4.129958	0.000876	0.479337
-4.323022	-3.034051	4.139955	0.000800	0.479644
-4.402161	-3.004698	4.149952	0.000814	0.479652
-4.553643	-2.953400	4.159949	0.000841	0.479647
-4.438528	-2.995548	4.169946	0.000820	0.479645
-4.455620	-2.991607	4.179942	0.000823	0.479641
-4.245062	-3.005968	4.189939	0.000784	0.479841
-4.244252	-2.973293	4.199936	0.000784	0.479952
-4.150659	-3.005802	4.209933	0.000766	0.479956
-4.196615	-2.991611	4.219930	0.000774	0.479952
-4.072237	-3.035308	4.229926	0.000751	0.479955
-4.007668	-2.967712	4.239923	0.000739	0.480256
-3.931247	-2.988257	4.249920	0.000725	0.480280
-3.950027	-2.980021	4.259917	0.000728	0.480288
-3.896506	-3.002940	4.269914	0.000718	0.480277
-3.603825	-3.023844	4.279910	0.000665	0.480551
-3.571010	-3.023808	4.289907	0.000658	0.480591
-3.685294	-2.985357	4.299904	0.000679	0.480588
-3.640004	-3.002551	4.309901	0.000670	0.480586
-3.687768	-2.958867	4.319898	0.000678	0.480677
-3.498236	-2.959610	4.329894	0.000644	0.480898
-3.491826	-2.963984	4.339891	0.000642	0.480893
-3.358184	-3.010351	4.349888	0.000618	0.480898
-3.307298	-2.958973	4.359885	0.000608	0.481129
-3.144404	-2.993515	4.369882	0.000578	0.481207
-3.314465	-2.935563	4.379878	0.000608	0.481203
-3.260225	-2.943255	4.389875	0.000598	0.481243
-3.050595	-2.930266	4.399872	0.000560	0.481531
-2.886324	-2.987812	4.409869	0.000530	0.481535
-2.969551	-2.960934	4.419866	0.000544	0.481530
-2.934484	-2.950521	4.429862	0.000538	0.481607
-2.728991	-2.953631	4.439859	0.000500	0.481837
-2.761758	-2.942800	4.449856	0.000506	0.481838
-2.791496	-2.935238	4.459853	0.000511	0.481831
-2.572950	-2.958478	4.469850	0.000471	0.482010
-2.574934	-2.915733	4.479846	0.000471	0.482151
-2.512963	-2.936666	4.489843	0.000459	0.482156
-2.563825	-2.920395	4.499840	0.000468	0.482153
-2.311563	-2.925451	4.509837	0.000422	0.482431
-2.356640	-2.901104	4.519834	0.000430	0.482462
-2.365127	-2.899728	4.529830	0.000431	0.482459
-2.206475	-2.906960	4.539827	0.000402	0.482621
-2.122975	-2.883644	4.549824	0.000386	0.482797
-2.198726	-2.857238	4.559821	0.000399	0.482798
-2.168358	-2.857974	4.569818	0.000394	0.482834
-2.131392	-2.801366	4.579814	0.000386	0.483064
-2.006955	-2.845302	4.589811	0.000364	0.483067
-2.063780	-2.773408	4.599808	0.000373	0.483239
-1.938299	-2.774283	4.609805	0.000350	0.483384
-1.920908	-2.781771	4.619802	0.000347	0.483382
-2.022147	-2.656412	4.629798	0.000365	0.483678
-1.809326	-2.730831	4.639795	0.000326	0.483682
-1.845705	-2.633331	4.649792	0.000332	0.483962
-1.677134	-2.681470	4.659789	0.000301	0.484001
-1.637640	-2.634433	4.669786	0.000294	0.484203
-1.640602	-2.602045	4.679782	0.000294	0.484308
-1.501011	-2.615765	4.689779	0.000268	0.484427
-1.533835	-2.544298	4.699776	0.000274	0.484625
-1.465544	-2.542143	4.709773	0.000261	0.484713
-1.303340	-2.531624	4.719770	0.000231	0.484937
-1.333603	-2.524731	4.729766	0.000236	0.484927
-1.304407	-2.433917	4.739763	0.000230	0.485259
-1.324326	-2.419706	4.749760	0.000234	0.485285
-1.309462	-2.338192	4.759757	0.000231	0.485571
-1.173046	-2.359105	4.769754	0.000205	0.485662
-1.170108	-2.291224	4.779750	0.000205	0.485889
-1.166097	-2.244592	4.789747	0.000203	0.486048
-1.080541	-2.231321	4.799744	0.000188	0.486192
-1.006122	-2.175232	4.809741	0.000174	0.486462
-0.955810	-2.163352	4.819738	0.000164	0.486561
-0.991138	-2.070331	4.829734	0.000170	0.486826
-0.889294	-2.046973	4.839731	0.000151	0.487021
-0.924048	-1.988785	4.849728	0.000157	0.487173
-0.881815	-1.917771	4.859725	0.000149	0.487454
-0.747591	-1.901766	4.869722	0.000124	0.487662
-0.690317	-1.873699	4.879718	0.000114	0.487821
-0.692393	-1.808381	4.889715	0.000114	0.488033
-0.693259	-1.743400	4.899712	0.000113	0.488245
-0.705303	-1.671857	4.909709	0.000115	0.488466
-0.593515	-1.646997	4.919706	0.000095	0.488677
-0.567273	-1.567698	4.929702	0.000089	0.488966
-0.481394	-1.524284	4.939699	0.000073	0.489207
-0.462308	-1.458045	4.949696	0.000070	0.489445
-0.431871	-1.397429	4.959693	0.000064	0.489678
-0.434842	-1.317569	4.969690	0.000064	0.489935
-0.346174	-1.259722	4.979686	0.000047	0.490226
-0.397162	-1.159088	4.989683	0.000056	0.490495
-0.439321	-1.054914	4.999680	0.000063	0.490785
-0.382504	-0.984444	5.009677	0.000053	0.491080
-0.450568	-0.858795	5.019674	0.000065	0.491409
-0.303825	-0.812310	5.029670	0.000038	0.491728
-0.253625	-0.729425	5.039667	0.000028	0.492054
-0.156872	-0.664357	5.049664	0.000010	0.492375
-0.320463	-0.503348	5.059661	0.000039	0.492710
-0.203718	-0.445000	5.069658	0.000018	0.493032
-0.149200	-0.355910	5.079654	0.000008	0.493382
-0.143961	-0.249637	5.089651	0.000006	0.493731
-0.102528	-0.154936	5.099648	-0.000002	0.494084
-0.098295	-0.043159	5.109645	-0.000003	0.494449
0.067133	0.006509	5.119642	-0.000033	0.494797
0.009904	0.147177	5.129638	-0.000023	0.495184
0.000000	0.246212	5.139635	-0.000022	0.495492

0.077051	0.277957	5.144640	-0.000036	0.495681
0.110378	0.471584	5.149645	-0.000042	0.496337
0.128559	0.755809	5.154650	-0.000046	0.497264
0.191049	1.110629	5.159654	-0.000057	0.498463
0.120998	1.614557	5.164659	-0.000045	0.499983
0.186461	2.153144	5.169664	-0.000057	0.501758
0.326508	2.743524	5.174669	-0.000082	0.503772
0.448674	3.428717	5.179674	-0.000105	0.506055
0.522593	4.193665	5.184678	-0.000118	0.508523
0.640374	5.017527	5.189683	-0.000140	0.511209
0.775339	5.906000	5.194688	-0.000165	0.514099
0.833514	6.893672	5.199693	-0.000175	0.517193
0.998064	7.901241	5.204698	-0.000206	0.520443
0.972755	9.041141	5.209702	-0.000201	0.523871
1.205277	10.153358	5.214707	-0.000244	0.527465
1.218683	11.392649	5.219712	-0.000246	0.531184
1.457575	12.611914	5.224717	-0.000290	0.535053
1.524959	13.937332	5.229722	-0.000302	0.539028
1.657445	15.300314	5.234726	-0.000327	0.543151
1.773609	16.709000	5.239731	-0.000348	0.547357
1.995077	18.128547	5.244736	-0.000388	0.551669
2.054464	19.653058	5.249741	-0.000399	0.556084
2.039215	21.243977	5.254746	-0.000397	0.560578
2.026704	22.873448	5.259750	-0.000395	0.565146
2.173153	24.476780	5.264755	-0.000422	0.569760
2.283713	26.134357	5.269760	-0.000442	0.574452
2.379654	27.837951	5.274765	-0.000460	0.579218
2.706040	29.497154	5.279770	-0.000519	0.584043
2.858324	31.245717	5.284774	-0.000547	0.588905
2.919239	33.049768	5.289779	-0.000558	0.593789
2.934622	34.906275	5.294784	-0.000561	0.598730
2.927925	36.791475	5.299789	-0.000561	0.603685
3.168093	38.615010	5.304794	-0.000604	0.608665
3.345201	40.488874	5.309798	-0.000637	0.613677
3.488192	42.396611	5.314803	-0.000663	0.618705
3.491568	44.379087	5.319808	-0.000664	0.623757
3.536075	46.358545	5.324813	-0.000672	0.628797
3.634569	48.335019	5.329818	-0.000691	0.633837
3.750700	50.326314	5.334822	-0.000712	0.638889
3.776083	52.369271	5.339827	-0.000717	0.643950
3.743803	54.438989	5.344832	-0.000711	0.648987
3.843943	56.475455	5.349837	-0.000730	0.654018
4.055340	58.497307	5.354842	-0.000768	0.659069
4.170904	60.557056	5.359846	-0.000790	0.664092
4.324569	62.623932	5.364851	-0.000818	0.669125
4.309271	64.744169	5.369856	-0.000816	0.674107
4.538336	66.791649	5.374861	-0.000857	0.679083
4.496580	68.944118	5.379866	-0.000850	0.684045
4.521008	71.080519	5.384870	-0.000855	0.688988
4.544137	73.216836	5.389875	-0.000860	0.693895
4.883658	75.252589	5.394880	-0.000921	0.698790
4.816392	77.438288	5.399885	-0.000909	0.703668
5.056691	79.517416	5.404890	-0.000953	0.708516
5.014270	81.707398	5.409894	-0.000946	0.713356
5.098932	83.850209	5.414899	-0.000962	0.718158
5.213100	85.987813	5.419904	-0.000983	0.722939
5.485030	88.076489	5.424909	-0.001032	0.727703
5.403273	90.288413	5.429914	-0.001018	0.732434
5.595301	92.413994	5.434918	-0.001053	0.737155
5.682745	94.574832	5.439923	-0.001069	0.741843
5.654155	96.776652	5.444928	-0.001064	0.746503
5.608840	98.970846	5.449933	-0.001057	0.751105
5.661932	101.138755	5.454938	-0.001067	0.755696
5.677209	103.312151	5.459942	-0.001070	0.760244
5.919654	105.420289	5.464947	-0.001114	0.764793
5.952218	107.588826	5.469952	-0.001120	0.769289
6.031288	109.749753	5.474957	-0.001135	0.773777
6.128170	111.895684	5.479962	-0.001153	0.778221
6.331622	114.013862	5.484966	-0.001190	0.782659
6.250761	116.221959	5.489971	-0.001176	0.787053
6.487800	118.323442	5.494976	-0.001219	0.791431
6.447281	120.513294	5.499981	-0.001212	0.795768
6.701098	122.611556	5.504986	-0.001258	0.800104
6.511107	124.858543	5.509990	-0.001224	0.804404
6.658807	126.981915	5.514995	-0.001251	0.808670
6.756097	129.113362	5.520000	-0.001269	0.812895
6.859282	131.259773	5.525005	-0.001288	0.817132
6.900639	133.414981	5.530010	-0.001296	0.821321
7.098936	135.524077	5.535014	-0.001332	0.825507
7.115246	137.675638	5.540019	-0.001336	0.829630
7.197667	139.820506	5.545024	-0.001351	0.833765
7.279764	141.949760	5.550029	-0.001366	0.837849
7.458325	144.055609	5.555034	-0.001399	0.841933
7.438315	146.223243	5.560038	-0.001396	0.845983
7.365092	148.405258	5.565043	-0.001383	0.850006
7.537873	150.496922	5.570048	-0.001415	0.854002
7.638327	152.616221	5.575053	-0.001433	0.857983
7.566274	154.791683	5.580058	-0.001420	0.861939
7.673319	156.900646	5.585062	-0.001440	0.865869
7.798697	159.000589	5.590067	-0.001463	0.869776
7.732771	161.170469	5.595072	-0.001452	0.873672
7.910089	163.243802	5.600077	-0.001484	0.877530
8.015121	165.358192	5.605082	-0.001503	0.881399
8.040494	167.484566	5.610086	-0.001508	0.885223
8.089351	169.605119	5.615091	-0.001518	0.889035
8.288367	171.673697	5.620096	-0.001554	0.892831
8.207918	173.836890	5.625101	-0.001540	0.896606
8.223029	175.969719	5.630106	-0.001543	0.900370
8.320327	178.070264	5.635110	-0.001561	0.904113
8.323599	180.185307	5.640115	-0.001562	0.907808
8.492770	182.248083	5.645120	-0.001593	0.911498
8.550905	184.348692	5.650125	-0.001604	0.915171
8.743648	186.418430	5.655130	-0.001639	0.918857
8.702711	188.557057	5.660134	-0.001632	0.922507
8.710557	190.668851	5.665139	-0.001634	0.926126
8.878098	192.724566	5.670144	-0.001664	0.929730
8.899955	194.853919	5.675149	-0.001669	0.933359
8.992546	196.919147	5.680154	-0.001686	0.936907
9.095278	199.017361	5.685158	-0.001705	0.940503
9.155822	201.110382	5.690163	-0.001716	0.944052
9.059809	203.245125	5.695168	-0.001699	0.947567
9.336298	205.255528	5.700173	-0.001750	0.951077
9.273190	207.394022	5.705178	-0.001739	0.954591
9.340579	209.477151	5.710182	-0.001751	0.958075
9.265403	211.614881	5.715187	-0.001738	0.961555
9.463156	213.647553	5.720192	-0.001774	0.965006
9.706088	215.676002	5.725197	-0.001818	0.968463
9.701098	217.775007	5.730202	-0.001818	0.971883
9.740041	219.876211	5.735206	-0.001825	0.975319
9.837662	221.957220	5.740211	-0.001843	0.978743
9.711165	224.104492	5.745216	-0.001821	0.982137
9.751285	226.184868	5.750221	-0.001828	0.985504
9.957623	228.215570	5.755226	-0.001866	0.988873
10.088104	230.256331	5.760230	-0.001890	0.992204
10.070512	232.361091	5.765235	-0.001887	0.995544
9.925225	234.499596	5.770240	-0.001861	0.998857
10.220975	236.498453	5.775245	-0.001915	1.002179
10.259035	238.570202	5.780250	-0.001922	1.005465
10.326199	240.642524	5.785254	-0.001935	1.008756
10.288762	242.738585	5.790259	-0.001929	1.012017
10.455584	244.772975	5.795264	-0.001959	1.015282
10.446581	246.874452	5.800269	-0.001958	1.018546
10.483005	248.950838	5.805274	-0.001965	1.021786
10.486204	251.022206	5.810278	-0.001966	1.024989
10.591438	253.080650	5.815283	-0.001985	1.028217
10.624491	255.136233	5.820288	-0.001992	1.031392
10.688943	257.199115	5.825293	-0.002004	1.034585
10.791388	259.255295	5.830298	-0.002022	1.037778
10.794060	261.334236	5.835302	-0.002023	1.040944
10.958395	263.362575	5.840307	-0.002053	1.044108
10.843812	265.487488	5.845312	-0.002033	1.047262
11.122954	267.460712	5.850317	-0.002084	1.050384
11.127367	269.560712	5.855322	-0.002085	1.053544
10.896458	271.702493	5.860326	-0.002044	1.056635
11.067105	273.731949	5.865331	-0.002075	1.059757
11.194605	275.776842	5.870336	-0.002098	1.062870
11.283214	277.801187	5.875341	-0.002115	1.065924
11.416242	279.834492	5.880346	-0.002139	1.069005
11.498816	281.897870	5.885350	-0.002154	1.072096
11.482952	283.966089	5.890355	-0.002152	1.075135
11.533455	286.045573	5.895360	-0.002161	1.078216
11.525178	288.111726	5.900365	-0.002160	1.081239
11.555125	290.171948	5.905370	-0.002166	1.084264
11.665122	292.202738	5.910374	-0.002186	1.087278
11.815101	294.223967	5.915379	-0.002214	1.090289
11.649341	296.360798	5.920384	-0.002184	1.093302
11.774780	298.389003	5.925389	-0.002207	1.096295
11.776887	300.456786	5.930394	-0.002208	1.099276
11.957163	302.480431	5.935398	-0.002241	1.102273
11.779998	304.569058	5.940403	-0.002209	1.105179
11.934003	306.609366	5.945408	-0.002238	1.108171
11.889807	308.670824	5.950413	-0.002230	1.111088
12.020971	310.699919	5.955418	-0.002254	1.114037
12.083046	312.739563	5.960422	-0.002266	1.116960
12.152681	314.794938	5.965427	-0.002279	1.119901
12.195869	316.845848	5.970432	-0.002287	1.122815
12.254109	318.880941	5.975437	-0.002298	1.125706
12.299720	320.938158	5.980442	-0.002306	1.128615
12.421179	322.970619	5.985446	-0.002329	1.131519
12.441685	325.016400	5.990451	-0.002333	1.134385
12.541289	327.072450	5.995456	-0.002351	1.137296
12.532787	329.133978	6.000461	-0.002350	1.140155
12.663968	331.170774	6.005466	-0.002374	1.143040
12.643539	333.211740	6.010470	-0.002371	1.145851
12.695264	335.261536	6.015475	-0.002381	1.148702
12.611010	337.345912	6.020480	-0.002366	1.151528
12.797784	339.343095	6.025485	-0.002400	1.154357
12.879490	341.388379	6.030490	-0.002415	1.157194
12.973108	343.408728	6.035494	-0.002432	1.159996
12.933135	345.494090	6.040499	-0.002425	1.162818
12.940442	347.539909	6.045504	-0.002427	1.165601
13.155467	349.529765	6.050509	-0.002466	1.168398
13.143674	351.609038	6.055514	-0.002465	1.171204
13.274572	353.617670	6.060518	-0.002489	1.173974
13.250908	355.697915	6.065523	-0.002485	1.176763
13.368036	357.713121	6.070528	-0.002506	1.179522
13.525250	359.738977	6.075533	-0.002535	1.182308
13.388276	361.807199	6.080538	-0.002511	1.185009
13.498249	363.848483	6.085542	-0.002531	1.187781
13.365008	365.936211	6.090547	-0.002507	1.190497
13.404738	367.985643	6.095552	-0.002515	1.193235
13.561153	369.973993	6.100557	-0.002543	1.195939
13.663825	372.013013	6.105562	-0.002562	1.198679
13.755365	374.046918	6.110566	-0.002579	1.201401
13.672884	376.120857	6.115571	-0.002565	1.204091
13.832698	378.128613	6.120576	-0.002594	1.206798
13.814741	380.184680	6.125581	-0.002591	1.209482
13.870031	382.222968	6.130586	-0.002602	1.212169
14.047103	384.224449	6.135590	-0.002634	1.214857
13.987015	386.308360	6.140595	-0.002623	1.217540
14.060722	388.349463	6.145600	-0.002637	1.220222
13.992494	390.415873	6.150605	-0.002625	1.222867
14.248892	392.377760	6.155610	-0.002672	1.225516
14.144228	394.456251	6.160614	-0.002653	1.228149
14.245313	396.490001	6.165619	-0.002672	1.230810
14.199397	398.542787	6.170624	-0.002664	1.233425
14.386614	400.538022	6.175629	-0.002698	1.236063
14.407399	402.580362	6.180634	-0.002702	1.238683
14.464282	404.631030	6.185638	-0.002713	1.241324
14.444397	406.662076	6.190643	-0.002710	1.243900
14.551832	408.703957	6.195648	-0.002730	1.246540
14.602507	410.713847	6.200653	-0.002739	1.249110
14.623917	412.787982	6.205658	-0.002744	1.251743
14.686274	414.794037	6.210662	-0.002755	1.254302
14.692478	416.868445	6.215667	-0.002757	1.256918
14.751035	418.882010	6.220672	-0.002768	1.259474
14.852927	420.922875	6.225677	-0.002786	1.262078
14.870942	422.922348	6.230682	-0.002790	1.264589
14.888683	424.985505	6.235686	-0.002794	1.267175
14.921524	426.997777	6.240691	-0.002800	1.269698
14.937938	429.071504	6.245696	-0.002803	1.272286
15.098414	431.048083	6.250701	-0.002833	1.274809
15.212874	433.076092	6.255706	-0.002854	1.277371
15.243510	435.105094	6.260710	-0.002860	1.279894
15.137171	437.207370	6.265715	-0.002841	1.282444
15.295381	439.180869	6.270720	-0.002870	1.284942
15.383713	441.221489	6.275725	-0.002886	1.287489
15.353430	443.272444	6.280730	-0.002881	1.289993
15.430228	445.299698	6.285734	-0.002895	1.292508
15.352682	447.355258	6.290739	-0.002882	1.294989
15.609741	449.339508	6.295744	-0.002928	1.297517
15.575954	451.394139	6.300749	-0.002923	1.300005
15.736851	453.409648	6.305754	-0.002952	1.302522
15.632946	455.486183	6.310758	-0.002934	1.304998
15.827699	457.471637	6.315763	-0.002969	1.307483
15.759253	459.526177	6.320768	-0.002957	1.309937
15.729183	461.591501	6.325773	-0.002952	1.312416
15.797659	463.586706	6.330778	-0.002965	1.314847
15.968812	465.596385	6.335782	-0.002996	1.317332
16.066742	467.595758	6.340787	-0.003014	1.319770
16.354909	469.562255	6.345792	-0.003067	1.322243
16.042496	471.701884	6.350797	-0.003011	1.324672
16.226616	473.704288	6.355802	-0.003045	1.327136
16.281409	475.708322	6.360806	-0.003055	1.329544
16.310295	477.778247	6.365811	-0.003060	1.332016
16.285024	479.804439	6.370816	-0.003056	1.334409
16.301849	481.872755	6.375821	-0.003060	1.336865
16.372688	483.865992	6.380826	-0.003073	1.339250
16.471438	485.899807	6.385830	-0.003091	1.341689
16.531958	487.881428	6.390835	-0.003102	1.344047
16.607271	489.925463	6.395840	-0.003116	1.346481
16.607936	491.944484	6.400845	-0.003117	1.348851
16.733540	493.973457	6.405850	-0.003140	1.351278
16.835548	495.955140	6.410854	-0.003159	1.353636
16.783798	498.050129	6.415859	-0.003150	1.356061
16.776202	500.080025	6.420864	-0.003149	1.358423
16.830061	502.127324	6.425869	-0.003159	1.360826
16.878035	504.123763	6.430874	-0.003168	1.363163
16.935216	506.165687	6.435878	-0.003179	1.365553
16.850943	508.226273	6.440883	-0.003164	1.367904
16.977781	510.236112	6.445888	-0.003187	1.370276
17.114322	512.219256	6.450893	-0.003212	1.372616
17.201838	514.243047	6.455898	-0.003228	1.374980
17.129765	516.305070	6.460902	-0.003216	1.377322
17.251339	518.328412	6.465907	-0.003238	1.379691
17.343707	520.324315	6.470912	-0.003255	1.382013
17.608954	522.282503	6.475917	-0.003303	1.384355
17.496962	524.373077	6.480922	-0.003284	1.386698
17.725924	526.332605	6.485926	-0.003325	1.389020
17.675776	528.406738	6.490931	-0.003317	1.391360
17.956836	530.355170	6.495936	-0.003368	1.393681
17.714403	532.499316	6.500941	-0.003324	1.396019
17.706524	534.536592	6.505946	-0.003323	1.398322
17.724747	536.566147	6.510950	-0.003327	1.400623
17.872150	538.554223	6.515955	-0.003354	1.402922
17.817282	540.613212	6.520960	-0.003344	1.405220
17.858963	542.627065	6.525965	-0.003352	1.407501
18.180256	544.566578	6.530970	-0.003411	1.409801
18.113048	546.642268	6.535974	-0.003399	1.412102
18.039093	548.696922	6.540979	-0.003386	1.414373
18.163136	550.714517	6.545984	-0.003409	1.416675
18.263390	552.708102	6.550989	-0.003427	1.418936
18.375921	554.740335	6.555994	-0.003448	1.421242
18.415504	556.731254	6.560998	-0.003456	1.423471
18.446452	558.786516	6.566003	-0.003462	1.425764
18.552974	560.767328	6.571008	-0.003481	1.428000
18.518174	562.858794	6.576013	-0.003475	1.430301
18.619123	564.839297	6.581018	-0.003494	1.432527
18.556240	566.918397	6.586022	-0.003483	1.434797
18.633027	568.925485	6.591027	-0.003497	1.437036
18.634268	570.971004	6.596032	-0.003498	1.439286
18.799469	572.951671	6.601037	-0.003528	1.441522
18.827473	574.968578	6.606042	-0.003533	1.443744
18.813995	577.029776	6.611046	-0.003531	1.445995
18.843203	579.053707	6.616051	-0.003537	1.448217
18.976305	581.051182	6.621056	-0.003561	1.450446
19.167841	583.025440	6.626061	-0.003596	1.452668
19.060320	585.102168	6.631066	-0.003577	1.454887
19.127653	587.139097	6.636070	-0.003590	1.457125
19.186230	589.153201	6.641075	-0.003601	1.459331
19.455908	591.117166	6.646080	-0.003650	1.461556
19.352472	593.159319	6.651085	-0.003632	1.463726
19.480146	595.191273	6.656090	-0.003655	1.465967
19.639656	597.150136	6.661094	-0.003684	1.468136
19.612825	599.235514	6.666099	-0.003680	1.470371
19.604875	601.244688	6.671104	-0.003679	1.472528
19.883518	603.222407	6.676109	-0.003730	1.474751
19.901227	605.255288	6.681114	-0.003733	1.476936
19.803749	607.339890	6.686118	-0.003716	1.479131
19.921851	609.337450	6.691123	-0.003738	1.481308
19.901503	611.376140	6.696128	-0.003734	1.483476
20.013205	613.386407	6.701133	-0.003755	1.485657
20.138121	615.370262	6.706138	-0.003778	1.487813
20.159519	617.421141	6.711142	-0.003782	1.489999
20.354564	619.395362	6.716147	-0.003818	1.492162
20.388233	621.432931	6.721152	-0.003824	1.494332
20.457983	623.467806	6.726157	-0.003837	1.496509
20.413781	625.520905	6.731162	-0.003830	1.498661
20.572445	627.519899	6.736166	-0.003859	1.500826
20.475967	629.538788	6.741171	-0.003842	1.502917
20.628916	631.558035	6.746176	-0.003870	1.505095
20.717686	633.554470	6.751181	-0.003886	1.507222
20.808832	635.587249	6.756186	-0.003903	1.509386
20.759167	637.626296	6.761190	-0.003894	1.511503
20.853012	639.645803	6.766195	-0.003912	1.513648
20.865571	641.685296	6.771200	-0.003914	1.515782
20.905814	643.707553	6.776205	-0.003922	1.517904
20.933746	645.739812	6.781210	-0.003927	1.520030
20.971831	647.751073	6.786214	-0.003935	1.522134
21.078615	649.748922	6.791219	-0.003954	1.524246
21.194519	651.755421	6.796224	-0.003976	1.526366
21.168907	653.788888	6.801229	-0.003971	1.528463
21.301757	655.807746	6.806234	-0.003996	1.530596
21.328144	657.810556	6.811238	-0.004001	1.532673
21.462506	659.841578	6.816243	-0.004025	1.534814
21.434920	661.877208	6.821248	-0.004021	1.536901
21.434656	663.934201	6.826253	-0.004021	1.539016
21.513604	665.926293	6.831258	-0.004036	1.541088
21.761543	667.867463	6.836262	-0.004081	1.543165
21.595743	669.974797	6.841267	-0.004051	1.545266
21.630089	671.973144	6.846272	-0.004058	1.547321
21.552740	674.055015	6.851277	-0.004044	1.549421
21.893301	675.960721	6.856282	-0.004106	1.551481
21.870977	677.992200	6.861286	-0.004103	1.553543
22.049021	680.013547	6.866291	-0.004135	1.555660
21.919752	682.065811	6.871296	-0.004112	1.557701
22.051379	684.086319	6.876301	-0.004136	1.559795
22.085840	686.075796	6.881306	-0.004143	1.561823
22.196696	688.103669	6.886310	-0.004163	1.563912
22.264564	690.107625	6.891315	-0.004176	1.565960
22.291473	692.136045	6.896320	-0.004181	1.568017
22.387820	694.150648	6.901325	-0.004199	1.570080
22.357581	696.185458	6.906330	-0.004194	1.572117
22.295606	698.255770	6.911334	-0.004183	1.574178
22.481231	700.237261	6.916339	-0.004217	1.576229
22.471357	702.260387	6.921344	-0.004216	1.578255
22.643455	704.262812	6.926349	-0.004247	1.580317
22.693809	706.229422	6.931354	-0.004257	1.582301
22.778591	708.257055	6.936358	-0.004272	1.584354
22.820355	710.286598	6.941363	-0.004280	1.586393
22.785053	712.333636	6.946368	-0.004274	1.588420
22.791264	714.376576	6.951373	-0.004276	1.590455
22.953061	716.330045	6.956378	-0.004305	1.592450
23.187909	718.312411	6.961382	-0.004348	1.594495
23.177156	720.363358	6.966387	-0.004347	1.596524
23.281404	722.380269	6.971392	-0.004366	1.598555
23.412938	724.390343	6.976397	-0.004390	1.600586
23.276526	726.434405	6.981402	-0.004366	1.602559
23.421761	728.446946	6.986406	-0.004392	1.604592
23.348162	730.490823	6.991411	-0.004379	1.606580
23.488902	732.504975	6.996416	-0.004405	1.608608
23.489124	734.535229	7.001421	-0.004406	1.610603
23.534107	736.543465	7.006426	-0.004414	1.612588
23.605539	738.558258	7.011430	-0.004427	1.614586
23.850466	740.527104	7.016435	-0.004472	1.616593
23.864788	742.557779	7.021440	-0.004475	1.618583
23.908539	744.623038	7.026445	-0.004483	1.620614
23.970975	746.598148	7.031450	-0.004495	1.622560
24.142710	748.613211	7.036454	-0.004526	1.624579
23.920970	750.685835	7.041459	-0.004487	1.626523
24.154132	752.654403	7.046464	-0.004529	1.628511
24.174609	754.683391	7.051469	-0.004533	1.630487
24.233883	756.679155	7.056474	-0.004544	1.632440
24.243956	758.712502	7.061478	-0.004547	1.634412
24.347553	760.722713	7.066483	-0.004566	1.636389
24.323450	762.762057	7.071488	-0.004562	1.638351
24.466260	764.758117	7.076493	-0.004588	1.640322
24.450473	766.764543	7.081498	-0.004585	1.642250
24.567711	768.797079	7.086502	-0.004607	1.644244
24.587669	770.795867	7.091507	-0.004611	1.646171
24.657853	772.819458	7.096512	-0.004624	1.648136
24.720934	774.836138	7.101517	-0.004636	1.650090
24.818362	776.819636	7.106522	-0.004654	1.652021
24.758360	778.892003	7.111526	-0.004643	1.653984
24.948571	780.878087	7.116531	-0.004678	1.655943
24.930189	782.912630	7.121536	-0.004675	1.657879
24.928005	784.971181	7.126541	-0.004675	1.659840
25.033835	786.891132	7.131546	-0.004695	1.661702
25.096673	788.949340	7.136550	-0.004706	1.663679
25.124962	790.954941	7.141555	-0.004712	1.665593
25.149643	792.978553	7.146560	-0.004717	1.667521
24.969071	795.072274	7.151565	-0.004684	1.669448
25.181573	797.012079	7.156570	-0.004723	1.671352
25.210934	799.033726	7.161574	-0.004729	1.673272
25.467483	801.006167	7.166579	-0.004776	1.675216
25.441462	803.040874	7.171584	-0.004771	1.677127
25.539667	805.065857	7.176589	-0.004789	1.679066
25.498981	807.068112	7.181594	-0.004782	1.680938
25.725747	809.053811	7.186598	-0.004824	1.682876
25.572749	811.139395	7.191603	-0.004797	1.684786
25.771832	813.100581	7.196608	-0.004833	1.686688
25.762142	815.149066	7.201613	-0.004832	1.688605
25.783713	817.184629	7.206618	-0.004836	1.690516
25.856166	819.168144	7.211622	-0.004849	1.692393
25.877315	821.231355	7.216627	-0.004853	1.694326
25.754594	823.263894	7.221632	-0.004832	1.696184
25.892508	825.282844	7.226637	-0.004857	1.698108
26.031501	827.244871	7.231642	-0.004882	1.699977
26.154041	829.211064	7.236646	-0.004905	1.701842
26.021214	831.294813	7.241651	-0.004881	1.703736
26.172145	833.276732	7.246656	-0.004909	1.705621
26.415826	835.212891	7.251661	-0.004953	1.707490
26.409534	837.297306	7.256666	-0.004953	1.709417
26.326719	839.314022	7.261670	-0.004938	1.711257
26.493085	841.313696	7.266675	-0.004969	1.713154
26.525272	843.332459	7.271680	-0.004975	1.715026
26.688173	845.325968	7.276685	-0.005005	1.716913
26.670155	847.368750	7.281690	-0.005002	1.718788
26.912754	849.322643	7.286694	-0.005046	1.720658
26.877024	851.361809	7.291699	-0.005040	1.722520
26.914821	853.417923	7.296704	-0.005047	1.724418
27.128720	855.343732	7.301709	-0.005086	1.726248
27.151004	857.419041	7.306714	-0.005090	1.728155
27.164111	859.435466	7.311718	-0.005093	1.730003
27.218544	861.451630	7.316723	-0.005103	1.731861
27.331017	863.457070	7.321728	-0.005124	1.733725
27.486985	865.449438	7.326733	-0.005153	1.735588
27.470738	867.494597	7.331738	-0.005150	1.737445
27.518742	869.548460	7.336742	-0.005159	1.739328
27.350917	871.558855	7.341747	-0.005129	1.741104
27.460498	873.579112	7.346752	-0.005149	1.742971
27.564592	875.564636	7.351757	-0.005169	1.744802
27.478731	877.614884	7.356762	-0.005153	1.746633
27.604172	879.603289	7.361766	-0.005176	1.748470
27.634812	881.639932	7.366771	-0.005182	1.750320
27.782536	883.598617	7.371776	-0.005209	1.752133
27.743644	885.674186	7.376781	-0.005203	1.753993
27.843950	887.636851	7.381786	-0.005221	1.755791
27.893017	889.675980	7.386790	-0.005231	1.757641
27.886857	891.696293	7.391795	-0.005230	1.759456
27.949286	893.678946	7.396800	-0.005241	1.761255
27.932507	895.734779	7.401805	-0.005239	1.763095
28.121958	897.709187	7.406810	-0.005273	1.764921
28.133208	899.720593	7.411814	-0.005276	1.766725
28.160185	901.781774	7.416819	-0.005281	1.768577
28.226817	903.746877	7.421824	-0.005294	1.770353
28.272156	905.778593	7.426829	-0.005302	1.772180
28.443032	907.767596	7.431834	-0.005333	1.774004
28.512031	909.783978	7.436838	-0.005346	1.775820
28.440145	911.850069	7.441843	-0.005334	1.777638
28.542483	913.854522	7.446848	-0.005352	1.779450
28.660979	915.781850	7.451853	-0.005374	1.781196
28.735893	917.824639	7.456858	-0.005388	1.783030
28.840729	919.819850	7.461862	-0.005407	1.784829
28.893486	921.841198	7.466867	-0.005417	1.786635
28.804009	923.897980	7.471872	-0.005402	1.788428
28.997654	925.863667	7.476877	-0.005437	1.790221
28.958149	927.886960	7.481882	-0.005430	1.791996
28.840815	929.994612	7.486886	-0.005409	1.793820
29.014916	931.920414	7.491891	-0.005441	1.795567
29.199964	933.922823	7.496896	-0.005475	1.797384
29.119122	935.982543	7.501901	-0.005461	1.799171
29.430753	937.899877	7.506906	-0.005518	1.800945
29.368269	939.953479	7.511910	-0.005507	1.802729
29.505015	941.959962	7.516915	-0.005532	1.804528
29.504717	943.968562	7.521920	-0.005532	1.806287
29.477391	946.059804	7.526925	-0.005527	1.808108
29.483688	948.050733	7.531930	-0.005529	1.809850
29.682247	950.015282	7.536934	-0.005565	1.811623
29.701893	952.060671	7.541939	-0.005569	1.813413
29.839169	954.058577	7.546944	-0.005594	1.815193
29.921282	956.048146	7.551949	-0.005610	1.816949
30.054627	958.082425	7.556954	-0.005634	1.818756
29.916435	960.087939	7.561958	-0.005609	1.820459
30.008586	962.113177	7.566963	-0.005626	1.822244
29.999601	964.141674	7.571968	-0.005625	1.824000
30.102060	966.132734	7.576973	-0.005644	1.825755
30.184015	968.142243	7.581978	-0.005659	1.827517
30.332317	970.141829	7.586982	-0.005686	1.829289
30.131112	972.201998	7.591987	-0.005650	1.831011
30.262165	974.222406	7.596992	-0.005675	1.832792
30.377891	976.205128	7.601997	-0.005696	1.834534
30.412506	978.227520	7.607002	-0.005702	1.836286
30.346112	980.273275	7.612006	-0.005691	1.838028
30.506503	982.251828	7.617011	-0.005720	1.839775
30.611783	984.205709	7.622016	-0.005740	1.841483
30.589495	986.289290	7.627021	-0.005736	1.843264
30.764853	988.241417	7.632026	-0.005768	1.844987
30.853204	990.247554	7.637030	-0.005784	1.846731
30.810672	992.321440	7.642035	-0.005777	1.848493
30.953062	994.285930	7.647040	-0.005803	1.850213
30.890945	996.328436	7.652045	-0.005792	1.851940
31.042328	998.354698	7.657050	-0.005820	1.853711
31.186900	1000.293947	7.662054	-0.005847	1.855405
31.326368	1002.335920	7.667059	-0.005872	1.857183
31.308165	1004.363739	7.672064	-0.005869	1.858903
31.283546	1006.376060	7.677069	-0.005865	1.860607
31.267217	1008.413976	7.682074	-0.005863	1.862334
31.396942	1010.412851	7.687078	-0.005886	1.864066
31.460813	1012.383834	7.692083	-0.005898	1.865754
31.424024	1014.464704	7.697088	-0.005892	1.867507
31.363754	1016.490237	7.702093	-0.005882	1.869204
31.575495	1018.427467	7.707098	-0.005920	1.870900
31.477410	1020.498263	7.712102	-0.005903	1.872622
31.679695	1022.475606	7.717107	-0.005940	1.874347
31.578195	1024.511439	7.722112	-0.005922	1.876035
31.915766	1026.469890	7.727117	-0.005983	1.877778
31.735544	1028.521636	7.732122	-0.005951	1.879455
31.891212	1030.499095	7.737126	-0.005979	1.881161
31.698388	1032.594425	7.742131	-0.005945	1.882868
31.892208	1034.562154	7.747136	-0.005980	1.884573
31.924915	1036.550598	7.752141	-0.005987	1.886249
32.166574	1038.545306	7.757146	-0.006031	1.887986
32.078139	1040.566410	7.762150	-0.006015	1.889654
32.123132	1042.602184	7.767155	-0.006024	1.891369
32.158666	1044.613567	7.772160	-0.006030	1.893059
32.112656	1046.671969	7.777165	-0.006023	1.894765
32.328639	1048.600791	7.782170	-0.006062	1.896432
32.163096	1050.736058	7.787174	-0.006032	1.898166
32.360516	1052.611336	7.792179	-0.006068	1.899781
32.433427	1054.631343	7.797184	-0.006082	1.901481
32.354833	1056.698403	7.802189	-0.006068	1.903178
32.477269	1058.656028	7.807194	-0.006091	1.904837
32.575284	1060.667822	7.812198	-0.006109	1.906532
32.675853	1062.695120	7.817203	-0.006127	1.908240
32.577825	1064.708635	7.822208	-0.006110	1.909881
32.810644	1066.689553	7.827213	-0.006152	1.911583
32.722402	1068.752087	7.832218	-0.006137	1.913264
32.733351	1070.772652	7.837222	-0.006139	1.914936
32.780821	1072.773596	7.842227	-0.006148	1.916600
33.003057	1074.762797	7.847232	-0.006189	1.918300
32.815252	1076.782876	7.852237	-0.006155	1.919913
32.946107	1078.795059	7.857242	-0.006179	1.921605
33.275234	1080.728772	7.862246	-0.006239	1.923283
33.284518	1082.754427	7.867251	-0.006241	1.924950
33.134641	1084.824643	7.872256	-0.006214	1.926609
33.305833	1086.852012	7.877261	-0.006246	1.928318
33.304502	1088.813633	7.882266	-0.006246	1.929925
33.406092	1090.834501	7.887270	-0.006265	1.931607
33.292901	1092.922250	7.892275	-0.006244	1.933285
33.545220	1094.854750	7.897280	-0.006290	1.934932
33.554867	1096.883790	7.902285	-0.006293	1.936591
33.648843	1098.938003	7.907290	-0.006310	1.938292
33.616613	1100.912191	7.912294	-0.006304	1.939893
33.753807	1102.911784	7.917299	-0.006330	1.941559
33.911346	1104.906709	7.922304	-0.006359	1.943224
33.955196	1106.891847	7.927309	-0.006367	1.944850
34.141587	1108.864912	7.932314	-0.006401	1.946503
34.107881	1110.955079	7.937318	-0.006395	1.948190
34.048584	1112.962562	7.942323	-0.006385	1.949803
34.089033	1114.998182	7.947328	-0.006393	1.951464
34.223265	1116.975703	7.952333	-0.006417	1.953100
34.283275	1118.977931	7.957338	-0.006428	1.954736
34.204962	1121.028613	7.962342	-0.006415	1.956373
34.362715	1123.034723	7.967347	-0.006443	1.958035
34.588549	1124.929677	7.972352	-0.006485	1.959624
34.663620	1126.977563	7.977357	-0.006499	1.961295
34.777487	1128.974670	7.982362	-0.006520	1.962934
34.731235	1131.017408	7.987366	-0.006512	1.964566
34.841289	1133.023239	7.992371	-0.006532	1.966208
34.934141	1135.072528	7.997376	-0.006549	1.967879
34.780050	1137.083848	8.002381	-0.006522	1.969454
35.064176	1139.040540	8.007386	-0.006573	1.971098
34.992599	1141.110464	8.012390	-0.006561	1.972739
35.045674	1143.123840	8.017395	-0.006571	1.974366
35.061176	1145.128269	8.022400	-0.006574	1.975974
35.122098	1147.164895	8.027405	-0.006585	1.977618
35.252926	1149.099219	8.032410	-0.006609	1.979198
35.212440	1151.162949	8.037414	-0.006602	1.980835
35.377078	1153.130449	8.042419	-0.006632	1.982447
35.342663	1155.179117	8.047424	-0.006627	1.984071
35.506134	1157.128355	8.052429	-0.006656	1.985666
35.688677	1159.140939	8.057434	-0.006690	1.987315
35.867856	1161.095850	8.062438	-0.006723	1.988916
35.778196	1163.167531	8.067443	-0.006707	1.990538
35.786721	1165.206662	8.072448	-0.006709	1.992159
35.982519	1167.187113	8.077453	-0.006744	1.993781
35.877226	1169.244612	8.082458	-0.006726	1.995384
36.252069	1171.192436	8.087462	-0.006794	1.997023
36.107524	1173.254898	8.092467	-0.006768	1.998618
36.199031	1175.235927	8.097472	-0.006785	2.000208
36.322636	1177.233666	8.102477	-0.006808	2.001817
36.293881	1179.291528	8.107482	-0.006803	2.003434
36.225190	1181.308928	8.112486	-0.006791	2.005008
36.343874	1183.336358	8.117491	-0.006813	2.006636
36.490309	1185.315630	8.122496	-0.006840	2.008232
36.560432	1187.303772	8.127501	-0.006853	2.009814
36.564029	1189.339083	8.132506	-0.006854	2.011416
36.771520	1191.330488	8.137510	-0.006892	2.013033
36.612167	1193.374856	8.142515	-0.006863	2.014597
36.891350	1195.346536	8.147520	-0.006914	2.016214
36.868666	1197.388481	8.152525	-0.006910	2.017809
37.094793	1199.298082	8.157530	-0.006952	2.019362
37.177871	1201.319178	8.162534	-0.006967	2.020964
37.188472	1203.396912	8.167539	-0.006969	2.022591
37.253147	1205.345879	8.172544	-0.006981	2.024130
37.367089	1207.378658	8.177549	-0.007002	2.025746
37.325295	1209.431811	8.182554	-0.006995	2.027337
37.365887	1211.435683	8.187558	-0.007003	2.028909
37.323510	1213.454502	8.192563	-0.006995	2.030471
37.547212	1215.456112	8.197568	-0.007036	2.032085
37.427324	1217.482630	8.202573	-0.007015	2.033630
37.683037	1219.447201	8.207578	-0.007062	2.035221
37.672912	1221.479751	8.212582	-0.007060	2.036796
37.787199	1223.487382	8.217587	-0.007081	2.038383
37.639407	1225.516970	8.222592	-0.007055	2.039919
37.970631	1227.474843	8.227597	-0.007115	2.041518
37.731999	1229.572313	8.232602	-0.007072	2.043082
37.906777	1231.524345	8.237606	-0.007104	2.044636
38.005355	1233.536060	8.242611	-0.007122	2.046215
38.161741	1235.536981	8.247616	-0.007151	2.047799
38.124507	1237.530719	8.252621	-0.007145	2.049328
38.117983	1239.591990	8.257626	-0.007144	2.050916
38.197998	1241.588833	8.262630	-0.007159	2.052474
38.397018	1243.554322	8.267635	-0.007195	2.054037
38.363037	1245.599343	8.272640	-0.007189	2.055601
38.455191	1247.633694	8.277645	-0.007206	2.057188
38.444249	1249.597749	8.282650	-0.007205	2.058694
38.640237	1251.568382	8.287654	-0.007241	2.060255
38.604876	1253.624897	8.292659	-0.007235	2.061823
38.888339	1255.571281	8.297664	-0.007286	2.063385
38.749042	1257.615851	8.302669	-0.007261	2.064916
38.708423	1259.691138	8.307674	-0.007254	2.066494
38.752717	1261.694284	8.312678	-0.007263	2.068037
38.957769	1263.641251	8.317683	-0.007300	2.069575
38.871405	1265.705440	8.322688	-0.007285	2.071130
38.892046	1267.751448	8.327693	-0.007289	2.072696
38.770177	1269.773168	8.332698	-0.007267	2.074207
38.987631	1271.751919	8.337702	-0.007307	2.075768
38.976269	1273.768098	8.342707	-0.007305	2.077300
39.068202	1275.727277	8.347712	-0.007322	2.078813
39.255259	1277.697591	8.352717	-0.007357	2.080356
39.401871	1279.711638	8.357722	-0.007383	2.081921
39.303073	1281.755331	8.362726	-0.007366	2.083448
39.459959	1283.740323	8.367731	-0.007395	2.084992
39.443866	1285.794603	8.372736	-0.007392	2.086545
39.485855	1287.825758	8.377741	-0.007400	2.088093
39.456553	1289.808072	8.382746	-0.007395	2.089586
39.696716	1291.781636	8.387750	-0.007439	2.091137
39.784742	1293.791358	8.392755	-0.007455	2.092677
39.743411	1295.830486	8.397760	-0.007448	2.094207
39.598967	1297.900274	8.402765	-0.007423	2.095733
39.805252	1299.879824	8.407770	-0.007460	2.097276
39.885081	1301.804894	8.412774	-0.007475	2.098745
39.986461	1303.830014	8.417779	-0.007494	2.100294
39.918316	1305.869552	8.422784	-0.007482	2.101812
40.210476	1307.818599	8.427789	-0.007535	2.103348
39.929347	1309.901555	8.432794	-0.007484	2.104845
40.052169	1311.919348	8.437798	-0.007507	2.106389
40.047172	1313.926777	8.442803	-0.007507	2.107894
40.241034	1315.883737	8.447808	-0.007542	2.109408
40.234541	1317.908290	8.452813	-0.007541	2.110923
40.305137	1319.957987	8.457818	-0.007554	2.112474
40.277332	1321.927167	8.462822	-0.007550	2.113940
40.482575	1323.934379	8.467827	-0.007587	2.115489
40.447169	1325.974040	8.472832	-0.007581	2.117004
40.638784	1327.902646	8.477837	-0.007616	2.118490
40.572663	1329.941626	8.482842	-0.007604	2.119995
40.760427	1331.959800	8.487846	-0.007639	2.121544
40.737878	1333.972843	8.492851	-0.007635	2.123037
40.745875	1335.992834	8.497856	-0.007637	2.124543
40.723747	1338.031046	8.502861	-0.007633	2.126053
40.809222	1340.054325	8.507866	-0.007649	2.127577
40.769774	1342.034737	8.512870	-0.007642	2.129039
41.029249	1344.012374	8.517875	-0.007690	2.130568
40.910858	1346.086527	8.522880	-0.007669	2.132078
40.991434	1348.059254	8.527885	-0.007684	2.133559
40.992033	1350.077309	8.532890	-0.007684	2.135054
41.236783	1352.055197	8.537894	-0.007729	2.136576
41.249851	1354.020177	8.542899	-0.007731	2.138032
41.451838	1355.998793	8.547904	-0.007768	2.139542
41.316731	1358.086218	8.552909	-0.007744	2.141051
41.504780	1360.085319	8.557914	-0.007779	2.142571
41.425373	1362.081371	8.562919	-0.007765	2.144024
41.716356	1364.057456	8.567923	-0.007818	2.145549
41.668587	1366.117824	8.572928	-0.007809	2.147055
41.651347	1368.115327	8.577933	-0.007807	2.148521
41.743675	1370.116357	8.582938	-0.007824	2.150014
41.891036	1372.135661	8.587943	-0.007851	2.151533
42.132485	1374.058764	8.592947	-0.007895	2.153002
42.432007	1376.038139	8.597952	-0.007949	2.154525
42.228117	1378.152234	8.602957	-0.007913	2.156027
42.315534	1380.164107	8.607962	-0.007929	2.157522
42.260824	1382.148541	8.612967	-0.007919	2.158962
42.189492	1384.227512	8.617971	-0.007907	2.160467
42.225196	1386.242154	8.622976	-0.007914	2.161949
42.462913	1388.168323	8.627981	-0.007957	2.163412
42.292897	1390.263756	8.632986	-0.007927	2.164903
42.508257	1392.231915	8.637991	-0.007966	2.166389
42.445841	1394.264358	8.642995	-0.007955	2.167857
42.790672	1396.183123	8.648000	-0.008018	2.169336
42.566645	1398.284189	8.653005	-0.007978	2.170814
42.802011	1400.256739	8.658010	-0.008021	2.172304
42.937470	1402.209513	8.663015	-0.008045	2.173756
42.990184	1404.270572	8.668019	-0.008055	2.175266
43.057892	1406.279064	8.673024	-0.008068	2.176741
43.145938	1408.245237	8.678029	-0.008084	2.178188
43.160530	1410.253791	8.683034	-0.008087	2.179649
43.419811	1412.256029	8.688039	-0.008134	2.181160
43.425753	1414.257161	8.693043	-0.008136	2.182611
43.451979	1416.279491	8.698048	-0.008141	2.184081
43.463239	1418.326953	8.703053	-0.008143	2.185565
43.536341	1420.352243	8.708058	-0.008157	2.187046
43.572530	1422.297496	8.713063	-0.008164	2.188459
43.767827	1424.302217	8.718067	-0.008200	2.189951
43.697566	1426.372045	8.723072	-0.008187	2.191429
43.752202	1428.379919	8.728077	-0.008198	2.192889
43.671036	1430.398076	8.733082	-0.008183	2.194324
43.851238	1432.415564	8.738087	-0.008216	2.195818
43.751128	1434.446526	8.743091	-0.008198	2.197257
44.128187	1436.310850	8.748096	-0.008267	2.198683
44.103785	1438.376006	8.753101	-0.008263	2.200162
44.066169	1440.441739	8.758106	-0.008257	2.201637
44.012524	1442.414045	8.763111	-0.008247	2.203040
44.086372	1444.458378	8.768115	-0.008261	2.204523
44.283927	1446.427344	8.773120	-0.008297	2.205979
44.370882	1448.431043	8.778125	-0.008313	2.207434
44.345226	1450.438019	8.783130	-0.008309	2.208864
44.413728	1452.483869	8.788135	-0.008322	2.210343
44.442239	1454.492020	8.793139	-0.008327	2.211785
44.561689	1456.483564	8.798144	-0.008349	2.213235
44.411618	1458.536583	8.803149	-0.008322	2.214666
44.874270	1460.439205	8.808154	-0.008406	2.216128
44.695514	1462.494306	8.813159	-0.008374	2.217553
44.803914	1464.473639	8.818163	-0.008394	2.218988
44.712767	1466.527646	8.823168	-0.008378	2.220430
45.054772	1468.492611	8.828173	-0.008440	2.221905
44.903277	1470.509552	8.833178	-0.008413	2.223305
45.109445	1472.500735	8.838183	-0.008451	2.224767
44.986052	1474.577709	8.843187	-0.008429	2.226214
45.119788	1476.540420	8.848192	-0.008454	2.227637
45.236107	1478.511925	8.853197	-0.008475	2.229061
45.257199	1480.573499	8.858202	-0.008479	2.230527
45.322487	1482.568419	8.863207	-0.008491	2.231955
45.446789	1484.568895	8.868211	-0.008514	2.233399
45.457681	1486.589387	8.873216	-0.008517	2.234830
45.670064	1488.578987	8.878221	-0.008555	2.236285
45.626003	1490.592087	8.883226	-0.008548	2.237697
45.631349	1492.609170	8.888231	-0.008549	2.239122
45.487890	1494.679270	8.893235	-0.008524	2.240551
45.642024	1496.668906	8.898240	-0.008552	2.241988
45.608709	1498.645356	8.903245	-0.008546	2.243374
45.896885	1500.634442	8.908250	-0.008599	2.244839
45.808644	1502.680696	8.913255	-0.008583	2.246259
46.023737	1504.649416	8.918259	-0.008622	2.247692
46.079966	1506.622348	8.923264	-0.008633	2.249091
46.057163	1508.702208	8.928269	-0.008629	2.250547
46.020084	1510.725626	8.933274	-0.008623	2.251959
46.252589	1512.662454	8.938279	-0.008665	2.253370
46.278324	1514.710212	8.943283	-0.008670	2.254811
46.330932	1516.734529	8.948288	-0.008680	2.256241
46.330984	1518.732136	8.953293	-0.008681	2.257640
46.564054	1520.679272	8.958298	-0.008723	2.259054
46.583465	1522.708776	8.963303	-0.008727	2.260478
46.615412	1524.748567	8.968307	-0.008733	2.261910
46.659715	1526.702808	8.973312	-0.008741	2.263285
46.659004	1528.778950	8.978317	-0.008742	2.264734
46.751041	1530.762233	8.983322	-0.008759	2.266138
46.896482	1532.731493	8.988327	-0.008785	2.267543
46.830639	1534.748935	8.993331	-0.008774	2.268934
47.095293	1536.748147	8.998336	-0.008822	2.270384
46.943594	1538.804594	9.003341	-0.008795	2.271782
47.238984	1540.743087	9.008346	-0.008849	2.273195
47.175928	1542.788451	9.013351	-0.008838	2.274602
47.307979	1544.812469	9.018355	-0.008862	2.276037
47.168003	1546.814855	9.023360	-0.008837	2.277396
47.418801	1548.762132	9.028365	-0.008883	2.278802
47.399882	1550.828095	9.033370	-0.008880	2.280230
47.502727	1552.844144	9.038375	-0.008899	2.281650
47.452360	1554.818158	9.043379	-0.008890	2.283005
47.611588	1556.830693	9.048384	-0.008919	2.284433
47.548712	1558.887137	9.053389	-0.008908	2.285841
47.635738	1560.870526	9.058394	-0.008924	2.287231
47.772235	1562.824201	9.063399	-0.008949	2.288610
47.880933	1564.871776	9.068403	-0.008969	2.290047
48.023486	1566.860891	9.073408	-0.008995	2.291450
47.874671	1568.906688	9.078413	-0.008969	2.292829
47.937627	1570.923098	9.083418	-0.008981	2.294232
48.137723	1572.904207	9.088423	-0.009017	2.295639
48.016274	1574.928697	9.093427	-0.008996	2.297006
48.009095	1576.926606	9.098432	-0.008995	2.298379
47.979475	1578.953209	9.103437	-0.008990	2.299765
48.217593	1580.957347	9.108442	-0.009033	2.301194
48.378163	1582.857732	9.113447	-0.009063	2.302533
48.457173	1584.902801	9.118451	-0.009077	2.303953
48.293451	1586.968927	9.123456	-0.009048	2.305335
48.443314	1588.984234	9.128461	-0.009075	2.306748
48.454612	1590.930778	9.133466	-0.009078	2.308084
48.676620	1592.967211	9.138471	-0.009118	2.309525
48.627945	1594.976040	9.143475	-0.009110	2.310889
48.595467	1597.030986	9.148480	-0.009104	2.312287
48.708730	1598.991820	9.153485	-0.009125	2.313651
48.841458	1601.024125	9.158490	-0.009150	2.315067
48.844387	1603.037336	9.163495	-0.009151	2.316441
48.983550	1604.963891	9.168499	-0.009176	2.317785
48.898768	1607.030357	9.173504	-0.009161	2.319175
49.197976	1608.987467	9.178509	-0.009216	2.320573
49.401554	1610.960688	9.183514	-0.009253	2.321959
49.558027	1612.940964	9.188519	-0.009281	2.323340
49.519694	1615.019130	9.193523	-0.009275	2.324745
49.479011	1617.086869	9.198528	-0.009268	2.326141
49.333778	1619.097771	9.203533	-0.009242	2.327476
49.715337	1621.033535	9.208538	-0.009311	2.328871
49.728055	1623.068626	9.213543	-0.009314	2.330254
49.948943	1625.069669	9.218547	-0.009354	2.331658
49.893544	1627.061471	9.223552	-0.009345	2.332996
50.052090	1629.109871	9.228557	-0.009374	2.334416
50.014011	1631.121662	9.233562	-0.009367	2.335770
50.277495	1633.048288	9.238567	-0.009415	2.337129
50.386221	1635.021775	9.243571	-0.009435	2.338486
50.292278	1637.124130	9.248576	-0.009419	2.339886
50.469410	1639.098486	9.253581	-0.009451	2.341256
50.662046	1641.037025	9.258586	-0.009486	2.342605
50.583600	1643.131931	9.263591	-0.009472	2.344001
50.707308	1645.147461	9.268595	-0.009495	2.345386
50.682507	1647.163819	9.273600	-0.009491	2.346739
51.020107	1649.075451	9.278605	-0.009552	2.348097
51.003614	1651.131937	9.283610	-0.009550	2.349477
50.991307	1653.214333	9.288615	-0.009548	2.350874
51.117364	1655.141543	9.293619	-0.009571	2.352196
51.119949	1657.198675	9.298624	-0.009572	2.353578
51.253262	1659.191977	9.303629	-0.009596	2.354944
51.228330	1661.244284	9.308634	-0.009592	2.356315
51.260508	1663.181409	9.313639	-0.009598	2.357621
51.471975	1665.196714	9.318643	-0.009637	2.359015
51.259802	1667.274642	9.323648	-0.009599	2.360362
51.453866	1669.263053	9.328653	-0.009635	2.361734
51.408018	1671.250038	9.333658	-0.009627	2.363053
51.409119	1673.291217	9.338663	-0.009627	2.364418
51.394544	1675.345012	9.343667	-0.009625	2.365787
51.502440	1677.274780	9.348672	-0.009645	2.367098
51.544652	1679.256791	9.353677	-0.009653	2.368430
51.703283	1681.295872	9.358682	-0.009682	2.369823
51.548895	1683.360476	9.363687	-0.009654	2.371167
51.733272	1685.283082	9.368691	-0.009688	2.372486
51.740651	1687.332581	9.373696	-0.009690	2.373852
51.832801	1689.338770	9.378701	-0.009707	2.375207
51.920076	1691.294581	9.383706	-0.009723	2.376526
52.018752	1693.287889	9.388711	-0.009741	2.377871
51.890594	1695.335390	9.393715	-0.009718	2.379205
52.072853	1697.327298	9.398720	-0.009752	2.380565
51.969789	1699.367600	9.403725	-0.009733	2.381898
52.027660	1701.372325	9.408730	-0.009744	2.383239
52.049859	1703.376343	9.413735	-0.009749	2.384572
52.178581	1705.405377	9.418739	-0.009772	2.385943
52.120700	1707.365140	9.423744	-0.009762	2.387228
52.150604	1709.402231	9.428749	-0.009768	2.388583
52.329119	1711.377479	9.433754	-0.009801	2.389926
52.389030	1713.419136	9.438759	-0.009812	2.391287
52.104302	1715.465158	9.443763	-0.009761	2.392581
52.418105	1717.410505	9.448768	-0.009818	2.393929
52.478921	1719.436887	9.453773	-0.009829	2.395279
52.502396	1721.427256	9.458778	-0.009834	2.396597
52.422508	1723.405605	9.463783	-0.009820	2.397884
52.500791	1725.453414	9.468787	-0.009834	2.399249
52.562462	1727.467724	9.473792	-0.009846	2.400588
52.690643	1729.427623	9.478797	-0.009869	2.401904
52.718668	1731.427345	9.483802	-0.009875	2.403225
52.705891	1733.519726	9.488807	-0.009873	2.404598
52.604119	1735.539194	9.493811	-0.009855	2.405904
52.806082	1737.447814	9.498816	-0.009892	2.407198
53.048433	1739.396615	9.503821	-0.009936	2.408526
52.869804	1741.547960	9.508826	-0.009904	2.409901
52.968440	1743.510074	9.513831	-0.009922	2.411207
53.062655	1745.488476	9.518835	-0.009940	2.412523
52.892921	1747.582079	9.523840	-0.009909	2.413859
53.316661	1749.509863	9.528845	-0.009986	2.415206
53.219298	1751.509504	9.533850	-0.009969	2.416495
53.249713	1753.479875	9.538855	-0.009975	2.417789
53.216466	1755.532240	9.543859	-0.009969	2.419123
53.264579	1757.593030	9.548864	-0.009978	2.420478
53.359457	1759.525870	9.553869	-0.009996	2.421759
53.571455	1761.488579	9.558874	-0.010035	2.423082
53.278635	1763.609336	9.563879	-0.009982	2.424406
53.383084	1765.636363	9.568883	-0.010001	2.425747
53.542002	1767.526562	9.573888	-0.010030	2.427010
53.530008	1769.574617	9.578893	-0.010029	2.428341
53.515465	1771.604416	9.583898	-0.010026	2.429659
53.672346	1773.605531	9.588903	-0.010055	2.430991
53.602267	1775.590331	9.593907	-0.010043	2.432267
53.778242	1777.584869	9.598912	-0.010075	2.433598
53.824511	1779.606495	9.603917	-0.010084	2.434919
53.877298	1781.614697	9.608922	-0.010094	2.436233
53.921169	1783.584125	9.613927	-0.010102	2.437518
53.777785	1785.679283	9.618931	-0.010076	2.438847
53.953128	1787.627533	9.623936	-0.010108	2.440144
53.966109	1789.646375	9.628941	-0.010111	2.441454
54.175957	1791.576708	9.633946	-0.010149	2.442745
54.263332	1793.634128	9.638951	-0.010166	2.444093
54.318894	1795.640199	9.643955	-0.010176	2.445400
54.433399	1797.607382	9.648960	-0.010197	2.446694
54.512329	1799.601627	9.653965	-0.010212	2.447997
54.429171	1801.729806	9.658970	-0.010197	2.449354
54.321184	1803.763413	9.663975	-0.010178	2.450644
54.605649	1805.659885	9.668979	-0.010230	2.451923
54.722031	1807.654658	9.673984	-0.010251	2.453231
54.639883	1809.743358	9.678989	-0.010237	2.454560
54.824159	1811.695344	9.683994	-0.010270	2.455853
54.722612	1813.694388	9.688999	-0.010252	2.457118
54.767233	1815.705681	9.694003	-0.010261	2.458420
54.784614	1817.751734	9.699008	-0.010264	2.459738
54.813001	1819.744426	9.704013	-0.010270	2.461024
55.089670	1821.672280	9.709018	-0.010320	2.462316
54.977619	1823.751787	9.714023	-0.010300	2.463628
55.204825	1825.736761	9.719027	-0.010342	2.464945
55.128450	1827.748473	9.724032	-0.010328	2.466220
55.146567	1829.737437	9.729037	-0.010332	2.467497
55.207855	1831.764383	9.734042	-0.010343	2.468807
55.305047	1833.797952	9.739047	-0.010361	2.470127
55.228644	1835.811155	9.744051	-0.010348	2.471399
55.488226	1837.770482	9.749056	-0.010395	2.472703
55.426664	1839.824215	9.754061	-0.010384	2.474003
55.345898	1841.887373	9.759066	-0.010370	2.475304
55.390217	1843.795367	9.764071	-0.010379	2.476530
55.545403	1845.784519	9.769075	-0.010407	2.477830
55.485002	1847.852639	9.774080	-0.010397	2.479136
55.670623	1849.840714	9.779085	-0.010430	2.480439
55.724698	1851.793610	9.784090	-0.010441	2.481694
55.758511	1853.841333	9.789095	-0.010447	2.483004
55.667918	1855.880552	9.794099	-0.010431	2.484283
55.893360	1857.856494	9.799104	-0.010472	2.485584
55.791929	1859.839455	9.804109	-0.010454	2.486824
56.106405	1861.818411	9.809114	-0.010511	2.488142
56.101666	1863.863684	9.814119	-0.010511	2.489440
56.198283	1865.885755	9.819123	-0.010529	2.490742
56.235215	1867.873818	9.824128	-0.010536	2.492010
56.161895	1869.947292	9.829133	-0.010523	2.493310
56.163145	1871.956517	9.834138	-0.010524	2.494583
56.269776	1873.923541	9.839143	-0.010543	2.495849
56.282495	1875.869361	9.844147	-0.010546	2.497083
56.402207	1877.899811	9.849152	-0.010568	2.498391
56.468628	1879.916349	9.854157	-0.010580	2.499679
56.540484	1881.914729	9.859162	-0.010594	2.500955
56.533941	1883.892719	9.864167	-0.010593	2.502203
56.614388	1885.932569	9.869171	-0.010608	2.503507
56.644308	1887.949653	9.874176	-0.010614	2.504785
56.871971	1889.894965	9.879181	-0.010655	2.506056
56.858344	1891.900234	9.884186	-0.010653	2.507317
56.965311	1893.938679	9.889191	-0.010673	2.508622
57.023628	1895.954193	9.894195	-0.010684	2.509902
57.056869	1897.970749	9.899200	-0.010690	2.511178
57.246003	1899.923410	9.904205	-0.010725	2.512443
57.150678	1902.021932	9.909210	-0.010708	2.513744
57.222027	1904.007553	9.914215	-0.010721	2.515005
57.178677	1905.991791	9.919219	-0.010714	2.516243
57.132157	1908.017274	9.924224	-0.010705	2.517505
57.213383	1910.035239	9.929229	-0.010721	2.518787
57.410241	1912.005885	9.934234	-0.010756	2.520061
57.415338	1913.988468	9.939239	-0.010758	2.521304
57.602848	1915.949827	9.944243	-0.010792	2.522569
57.493540	1918.064942	9.949248	-0.010773	2.523873
57.572198	1920.077420	9.954253	-0.010787	2.525147
57.525812	1922.059552	9.959258	-0.010779	2.526378
57.557001	1924.063860	9.964263	-0.010785	2.527637
57.619129	1926.096944	9.969267	-0.010797	2.528920
57.649115	1928.103653	9.974272	-0.010803	2.530179
57.734282	1930.078731	9.979277	-0.010818	2.531428
57.785793	1932.074859	9.984282	-0.010828	2.532683
57.906032	1934.088034	9.989287	-0.010850	2.533962
57.908965	1936.108056	9.994291	-0.010851	2.535222
57.955327	1938.033093	9.999296	-0.010860	2.536430
57.933084	1940.078830	10.004301	-0.010856	2.537700
58.004491	1942.110516	10.009306	-0.010870	2.538978
58.133610	1944.084945	10.014311	-0.010893	2.540231
58.211733	1946.072694	10.019315	-0.010908	2.541481
58.165153	1948.123401	10.024320	-0.010900	2.542747
58.259536	1950.132069	10.029325	-0.010917	2.544013
58.178340	1952.178268	10.034330	-0.010903	2.545268
58.447447	1954.072713	10.039335	-0.010952	2.546494
58.360936	1956.126787	10.044339	-0.010937	2.547752
58.477427	1958.147861	10.049344	-0.010958	2.549027
58.582672	1960.147701	10.054349	-0.010977	2.550286
58.609775	1962.143147	10.059354	-0.010983	2.551527
58.631071	1964.174641	10.064359	-0.010987	2.552789
58.649268	1966.208847	10.069363	-0.010991	2.554051
58.740136	1968.201197	10.074368	-0.011007	2.555300
58.743478	1970.154533	10.079373	-0.011008	2.556508
58.816409	1972.161891	10.084378	-0.011022	2.557762
58.864289	1974.202417	10.089383	-0.011031	2.559031
59.006253	1976.196572	10.094387	-0.011057	2.560289
59.229761	1978.137024	10.099392	-0.011098	2.561528
59.352792	1980.142006	10.104397	-0.011120	2.562787
59.339539	1982.211562	10.109402	-0.011118	2.564060
59.435645	1984.200163	10.114407	-0.011136	2.565303
59.461354	1986.175172	10.119411	-0.011141	2.566524
59.530309	1988.198861	10.124416	-0.011154	2.567783
59.643965	1990.235848	10.129421	-0.011175	2.569057
59.674373	1992.177289	10.134426	-0.011181	2.570256
59.636881	1993.736022	10.139431	-0.011174	2.571207

59.797938	1994.844997	10.144435	-0.011204	2.571919
59.807174	1995.698728	10.149440	-0.011206	2.572445
59.815238	1996.376531	10.154445	-0.011207	2.572863
59.786303	1996.939315	10.159450	-0.011202	2.573203
60.026966	1997.258146	10.164455	-0.011246	2.573444
60.098140	1997.366617	10.169459	-0.011259	2.573524
60.200493	1997.809991	10.174464	-0.011278	2.573815
60.255861	1997.808319	10.179469	-0.011288	2.573825
60.131026	1997.833236	10.184474	-0.011266	2.573817
60.064317	1998.092289	10.189479	-0.011254	2.573964
60.260355	1998.295336	10.194483	-0.011290	2.574125
60.397021	1998.302005	10.199488	-0.011314	2.574155
60.146242	1998.319952	10.204493	-0.011269	2.574119
60.295713	1998.289909	10.209498	-0.011297	2.574129
60.217356	1998.337061	10.214503	-0.011283	2.574144
60.273558	1998.342770	10.219507	-0.011293	2.574158
60.123752	1998.317026	10.224512	-0.011266	2.574114
60.102460	1998.316800	10.229517	-0.011262	2.574110
60.311954	1998.319121	10.234522	-0.011301	2.574151
60.253869	1998.294473	10.239527	-0.011290	2.574125
60.320439	1998.306949	10.244531	-0.011302	2.574146
60.472340	1998.275913	10.249536	-0.011330	2.574155
60.357790	1998.286505	10.254541	-0.011310	2.574140
60.613316	1998.228269	10.259546	-0.011356	2.574153
60.597747	1998.225794	10.264551	-0.011353	2.574148
60.540355	1998.248506	10.269555	-0.011343	2.574152
60.642635	1998.206872	10.274560	-0.011362	2.574146
60.458366	1998.265893	10.279565	-0.011329	2.574148
60.545820	1998.239963	10.284570	-0.011345	2.574148
60.535260	1998.247920	10.289575	-0.011343	2.574151
60.666951	1998.202172	10.294579	-0.011367	2.574148
60.691525	1998.204783	10.299584	-0.011372	2.574155
60.686594	1998.196782	10.304589	-0.011371	2.574149
60.706370	1998.199072	10.309594	-0.011375	2.574154
60.585061	1998.217316	10.314599	-0.011353	2.574143
60.678091	1998.200882	10.319603	-0.011370	2.574150
60.575063	1998.233408	10.324608	-0.011352	2.574151
60.704513	1998.202588	10.329613	-0.011375	2.574157
60.766259	1998.170487	10.334618	-0.011387	2.574149
60.769932	1998.191158	10.339623	-0.011388	2.574162
60.798513	1998.267852	10.344627	-0.011393	2.574215
60.839543	1998.304127	10.349632	-0.011401	2.574245
60.761056	1998.327914	10.354637	-0.011387	2.574245
61.021182	1998.258614	10.359642	-0.011434	2.574252
60.953017	1998.316660	10.364647	-0.011422	2.574275
61.102323	1998.335007	10.369651	-0.011449	2.574314
60.895678	1998.307212	10.374656	-0.011412	2.574259
61.037985	1998.303011	10.379661	-0.011438	2.574283
61.124051	1998.313375	10.384666	-0.011453	2.574305
60.914666	1998.328645	10.389671	-0.011416	2.574276
60.931700	1998.307092	10.394675	-0.011419	2.574266
61.074756	1998.329885	10.399680	-0.011445	2.574307
61.223110	1998.295351	10.404685	-0.011472	2.574314
61.151200	1998.322226	10.409690	-0.011459	2.574317
61.104922	1998.358349	10.414695	-0.011451	2.574331
61.238666	1998.309942	10.419699	-0.011476	2.574326
61.170984	1998.301185	10.424704	-0.011464	2.574308
61.187205	1998.314225	10.429709	-0.011467	2.574320
61.181825	1998.343504	10.434714	-0.011466	2.574337
61.082976	1998.329981	10.439719	-0.011448	2.574310
61.240407	1998.292177	10.444723	-0.011477	2.574317
61.317030	1998.308213	10.449728	-0.011491	2.574341
61.177353	1998.339929	10.454733	-0.011466	2.574335
61.421255	1998.303298	10.459738	-0.011510	2.574358
61.453152	1998.315894	10.464743	-0.011516	2.574372
61.419036	1998.278607	10.469747	-0.011510	2.574343
61.593371	1998.342010	10.474752	-0.011542	2.574414
61.453158	1998.322241	10.479757	-0.011517	2.574376
61.388441	1998.337005	10.484762	-0.011505	2.574374
61.564803	1998.308708	10.489767	-0.011537	2.574389
61.498476	1998.331595	10.494771	-0.011526	2.574391
61.612547	1998.299350	10.499776	-0.011546	2.574393
61.502957	1998.323439	10.504781	-0.011527	2.574387
61.713168	1998.281284	10.509786	-0.011565	2.574401
61.679293	1998.347219	10.514791	-0.011559	2.574435
61.594220	1998.326704	10.519795	-0.011544	2.574407
61.428033	1998.322723	10.524800	-0.011514	2.574374
61.669508	1998.337971	10.529805	-0.011558	2.574428
61.548612	1998.310035	10.534810	-0.011536	2.574389
61.492028	1998.334792	10.539815	-0.011526	2.574394
61.676132	1998.317370	10.544819	-0.011560	2.574418
61.660270	1998.307605	10.549824	-0.011557	2.574409
61.590170	1998.304924	10.554829	-0.011545	2.574394
61.614129	1998.322481	10.559834	-0.011549	2.574410
61.711183	1998.301518	10.564839	-0.011567	2.574415
61.735527	1998.348217	10.569843	-0.011571	2.574449
61.652001	1998.323669	10.574848	-0.011557	2.574418
61.887147	1998.295301	10.579853	-0.011599	2.574445
61.779377	1998.308914	10.584858	-0.011580	2.574433
61.821452	1998.318415	10.589863	-0.011588	2.574447
61.858425	1998.287488	10.594867	-0.011595	2.574436
61.812933	1998.317776	10.599872	-0.011587	2.574446
61.926498	1998.287721	10.604877	-0.011607	2.574449
62.101106	1998.228155	10.609882	-0.011639	2.574445
61.890047	1998.288199	10.614887	-0.011601	2.574443
61.762920	1998.322966	10.619891	-0.011578	2.574441
61.819995	1998.307042	10.624896	-0.011589	2.574442
61.934513	1998.286873	10.629901	-0.011610	2.574451
61.884829	1998.291721	10.634906	-0.011601	2.574445
61.805405	1998.325970	10.639911	-0.011587	2.574451
61.870013	1998.278495	10.644915	-0.011599	2.574434
61.859816	1998.289140	10.649920	-0.011597	2.574439
62.014571	1998.260803	10.654925	-0.011625	2.574451
61.991266	1998.263733	10.659930	-0.011621	2.574448
61.910229	1998.284479	10.664935	-0.011607	2.574446
61.956049	1998.266889	10.669939	-0.011615	2.574444
61.854515	1998.294125	10.674944	-0.011597	2.574442
61.971517	1998.259208	10.679949	-0.011619	2.574443
61.924420	1998.256907	10.684954	-0.011610	2.574433
61.953978	1998.265892	10.689959	-0.011616	2.574444
62.046861	1998.247216	10.694963	-0.011633	2.574450
62.097286	1998.223392	10.699968	-0.011642	2.574445
62.085954	1998.223443	10.704973	-0.011640	2.574443
62.027124	1998.232599	10.709978	-0.011630	2.574438
62.029655	1998.228178	10.714983	-0.011631	2.574436
62.036852	1998.231243	10.719987	-0.011632	2.574440
62.148837	1998.202177	10.724992	-0.011652	2.574443
62.109951	1998.220533	10.729997	-0.011646	2.574447
62.081812	1998.228240	10.735002	-0.011641	2.574447
62.082261	1998.232086	10.740007	-0.011641	2.574449
62.162715	1998.209558	10.745011	-0.011656	2.574451
62.124199	1998.213553	10.750016	-0.011649	2.574446
62.015490	1998.342963	10.755021	-0.011630	2.574506
62.033584	1998.278596	10.760026	-0.011633	2.574470
62.144206	1998.348667	10.765031	-0.011653	2.574534
61.939387	1998.327682	10.770035	-0.011616	2.574483
61.952934	1998.317111	10.775040	-0.011619	2.574479
62.020169	1998.293008	10.780045	-0.011631	2.574477
62.060971	1998.312566	10.785050	-0.011639	2.574497
62.173638	1998.324003	10.790055	-0.011660	2.574525
62.094803	1998.283777	10.795059	-0.011646	2.574486
61.994445	1998.335080	10.800064	-0.011628	2.574499
62.035282	1998.309084	10.805069	-0.011635	2.574491
62.090718	1998.307143	10.810074	-0.011645	2.574500
62.066789	1998.344611	10.815079	-0.011641	2.574519
62.225501	1998.282249	10.820083	-0.011670	2.574510
62.028303	1998.340620	10.825088	-0.011635	2.574510
62.016457	1998.299863	10.830093	-0.011633	2.574482
62.037984	1998.311291	10.835098	-0.011637	2.574494
62.088563	1998.318206	10.840103	-0.011646	2.574508
62.080632	1998.332743	10.845107	-0.011645	2.574515
62.067255	1998.292706	10.850112	-0.011643	2.574488
62.049883	1998.336321	10.855117	-0.011640	2.574512
62.098608	1998.297239	10.860122	-0.011649	2.574497
62.014241	1998.282614	10.865127	-0.011634	2.574473
62.161177	1998.332478	10.870131	-0.011661	2.574531
62.018020	1998.344640	10.875136	-0.011635	2.574512
62.105104	1998.317043	10.880141	-0.011651	2.574512
61.955017	1998.285008	10.885146	-0.011624	2.574464
62.073740	1998.320554	10.890151	-0.011646	2.574508
62.201356	1998.299710	10.895155	-0.011669	2.574520
62.178902	1998.331896	10.900160	-0.011665	2.574535
62.079614	1998.275247	10.905165	-0.011647	2.574482
62.039763	1998.334096	10.910170	-0.011640	2.574511
62.296819	1998.307209	10.915175	-0.011687	2.574543
62.319805	1998.344147	10.920179	-0.011691	2.574570
62.144920	1998.281741	10.925184	-0.011660	2.574499
62.132962	1998.348645	10.930189	-0.011658	2.574538
62.136636	1998.283320	10.935194	-0.011659	2.574499
62.166036	1998.325175	10.940199	-0.011664	2.574531
62.119552	1998.298007	10.945203	-0.011656	2.574505
62.182444	1998.341125	10.950208	-0.011668	2.574544
62.221245	1998.325417	10.955213	-0.011675	2.574542
62.090134	1998.280737	10.960218	-0.011651	2.574490
62.160369	1998.347573	10.965223	-0.011664	2.574544
62.135361	1998.299115	10.970227	-0.011660	2.574510
62.014582	1998.323554	10.975232	-0.011638	2.574503
61.938139	1998.304737	10.980237	-0.011625	2.574477
62.073586	1998.321457	10.985242	-0.011649	2.574513
62.015107	1998.302518	10.990247	-0.011639	2.574491
61.901365	1998.331177	10.995251	-0.011619	2.574487
62.059405	1998.288865	11.000256	-0.011648	2.574491
62.100267	1998.310440	11.005261	-0.011655	2.574512
62.012622	1998.348463	11.010266	-0.011639	2.574519
62.186457	1998.284807	11.015271	-0.011671	2.574513
61.922154	1998.317030	11.020275	-0.011624	2.574483
61.964291	1998.325241	11.025280	-0.011631	2.574497
62.128875	1998.315542	11.030285	-0.011661	2.574522
62.170722	1998.309339	11.035290	-0.011669	2.574526
62.181757	1998.303349	11.040295	-0.011671	2.574524
62.345080	1998.335000	11.045299	-0.011701	2.574574
62.287604	1998.278606	11.050304	-0.011691	2.574529
62.163594	1998.328963	11.055309	-0.011669	2.574537
62.139689	1998.287802	11.060314	-0.011664	2.574508
62.292820	1998.353341	11.065319	-0.011692	2.574577
62.222987	1998.284167	11.070323	-0.011680	2.574522
62.071682	1998.318146	11.075328	-0.011653	2.574514
62.140083	1998.296741	11.080333	-0.011665	2.574514
62.182255	1998.345653	11.085338	-0.011673	2.574552
62.276393	1998.281814	11.090343	-0.011690	2.574531
62.155912	1998.361376	11.095347	-0.011669	2.574557
62.279847	1998.291527	11.100352	-0.011691	2.574538
62.340715	1998.332717	11.105357	-0.011703	2.574575
62.309343	1998.328431	11.110362	-0.011697	2.574566
62.183841	1998.294512	11.115367	-0.011675	2.574522
62.270691	1998.275128	11.120371	-0.011691	2.574527
62.215924	1998.341061	11.125376	-0.011681	2.574557
62.243828	1998.307294	11.130381	-0.011686	2.574542
62.034091	1998.325207	11.135386	-0.011648	2.574514
62.169821	1998.285610	11.140391	-0.011673	2.574515
62.318522	1998.314330	11.145395	-0.011700	2.574561
62.218671	1998.322224	11.150400	-0.011682	2.574547
62.307288	1998.347594	11.155405	-0.011699	2.574580
62.208834	1998.296287	11.160410	-0.011681	2.574530
62.404266	1998.325550	11.165415	-0.011717	2.574585
62.259769	1998.290538	11.170419	-0.011691	2.574537
62.098109	1998.329193	11.175424	-0.011662	2.574530
62.304719	1998.324522	11.180429	-0.011699	2.574566
62.381333	1998.317413	11.185434	-0.011713	2.574576
62.356346	1998.339937	11.190439	-0.011709	2.574586
62.204370	1998.308218	11.195443	-0.011682	2.574538
62.352596	1998.300443	11.200448	-0.011709	2.574561
62.267496	1998.321661	11.205453	-0.011694	2.574559
62.328317	1998.318592	11.210458	-0.011705	2.574568
62.214187	1998.311237	11.215463	-0.011684	2.574543
62.389878	1998.303250	11.220467	-0.011716	2.574571
62.401137	1998.320855	11.225472	-0.011718	2.574584
62.263359	1998.303646	11.230477	-0.011694	2.574548
62.386119	1998.322447	11.235482	-0.011716	2.574582
62.443368	1998.337258	11.240487	-0.011727	2.574602
62.504444	1998.308921	11.245491	-0.011738	2.574597
62.548503	1998.305608	11.250496	-0.011746	2.574603
62.488634	1998.286582	11.255501	-0.011736	2.574580
62.396107	1998.360185	11.260506	-0.011719	2.574608
62.329492	1998.293339	11.265511	-0.011707	2.574555
62.396468	1998.346157	11.270515	-0.011719	2.574600
62.455815	1998.319619	11.275520	-0.011730	2.574595
62.404977	1998.269093	11.280525	-0.011721	2.574555
62.526905	1998.304177	11.285530	-0.011744	2.574600
62.449239	1998.358757	11.290535	-0.011730	2.574619
62.431810	1998.310535	11.295539	-0.011727	2.574586
62.395256	1998.317749	11.300544	-0.011720	2.574584
62.353963	1998.345742	11.305549	-0.011713	2.574594
62.529844	1998.334645	11.310554	-0.011745	2.574620
62.366135	1998.284357	11.315559	-0.011716	2.574559
62.537009	1998.332288	11.320563	-0.011747	2.574620
62.351476	1998.339528	11.325568	-0.011714	2.574590
62.460100	1998.310977	11.330573	-0.011733	2.574593
62.425798	1998.309617	11.335578	-0.011727	2.574586
62.211703	1998.324529	11.340583	-0.011689	2.574556
62.364462	1998.290439	11.345587	-0.011717	2.574563
62.314626	1998.346476	11.350592	-0.011708	2.574589
62.321052	1998.324077	11.355597	-0.011709	2.574576
62.342727	1998.306453	11.360602	-0.011713	2.574570
62.416059	1998.333929	11.365607	-0.011727	2.574601
62.460335	1998.298489	11.370611	-0.011735	2.574587
62.457636	1998.307873	11.375616	-0.011735	2.574593
62.647904	1998.328532	11.380621	-0.011769	2.574641
62.575965	1998.316229	11.385626	-0.011757	2.574620
62.547410	1998.321519	11.390631	-0.011752	2.574618
62.366335	1998.262773	11.395635	-0.011719	2.574549
62.258191	1998.324842	11.400640	-0.011700	2.574567
62.385519	1998.328005	11.405645	-0.011723	2.574593
62.445687	1998.323099	11.410650	-0.011734	2.574601
62.348134	1998.321642	11.415655	-0.011717	2.574582
62.280865	1998.281458	11.420659	-0.011705	2.574545
62.390388	1998.320570	11.425664	-0.011725	2.574590
62.387266	1998.326266	11.430669	-0.011724	2.574593
62.270039	1998.318326	11.435674	-0.011703	2.574567
62.270980	1998.309045	11.440679	-0.011704	2.574561
62.396764	1998.308861	11.445683	-0.011727	2.574585
62.414167	1998.322053	11.450688	-0.011730	2.574596
62.407089	1998.302234	11.455693	-0.011729	2.574583
62.374601	1998.301850	11.460698	-0.011723	2.574577
62.494172	1998.328492	11.465703	-0.011745	2.574616
62.566081	1998.338081	11.470707	-0.011758	2.574635
62.301603	1998.298853	11.475712	-0.011711	2.574562
62.259480	1998.366538	11.480717	-0.011703	2.574596
62.392460	1998.262895	11.485722	-0.011728	2.574558
62.498460	1998.319365	11.490727	-0.011747	2.574612
62.553440	1998.308912	11.495731	-0.011757	2.574616
62.376276	1998.356099	11.500736	-0.011725	2.574612
62.437296	1998.318365	11.505741	-0.011736	2.574601
62.523168	1998.325997	11.510746	-0.011752	2.574622
62.361592	1998.330783	11.515751	-0.011723	2.574595
62.407763	1998.314360	11.520755	-0.011732	2.574593
62.339451	1998.324618	11.525760	-0.011720	2.574587
62.342722	1998.310558	11.530765	-0.011720	2.574579
62.353730	1998.275569	11.535770	-0.011723	2.574560
62.313316	1998.299478	11.540775	-0.011715	2.574568
62.331505	1998.318538	11.545779	-0.011719	2.574583
62.373443	1998.318923	11.550784	-0.011727	2.574591
62.435031	1998.277708	11.555789	-0.011738	2.574578
62.427922	1998.324565	11.560794	-0.011737	2.574605
62.569803	1998.306253	11.565799	-0.011763	2.574621
62.717010	1998.298790	11.570803	-0.011790	2.574644
62.576753	1998.370628	11.575808	-0.011764	2.574662
62.579933	1998.292472	11.580813	-0.011765	2.574615
62.482666	1998.344363	11.585818	-0.011748	2.574629
62.512578	1998.316346	11.590823	-0.011754	2.574617
62.512143	1998.319952	11.595827	-0.011754	2.574620
62.551208	1998.302891	11.600832	-0.011761	2.574617
62.588299	1998.364802	11.605837	-0.011768	2.574662
62.541669	1998.290602	11.610842	-0.011760	2.574608
62.529577	1998.285540	11.615847	-0.011758	2.574603
62.451547	1998.326236	11.620851	-0.011744	2.574613
62.424716	1998.335835	11.625856	-0.011739	2.574614
62.620545	1998.296533	11.630861	-0.011775	2.574627
62.530101	1998.289351	11.635866	-0.011759	2.574606
62.544676	1998.302131	11.640871	-0.011761	2.574617
62.521988	1998.343040	11.645875	-0.011757	2.574638
62.578566	1998.322433	11.650880	-0.011768	2.574636
62.559797	1998.294975	11.655885	-0.011765	2.574616
62.487101	1998.314964	11.660890	-0.011752	2.574615
62.401344	1998.328493	11.665895	-0.011736	2.574607
62.553745	1998.310289	11.670899	-0.011764	2.574625
62.565599	1998.340946	11.675904	-0.011767	2.574646
62.517073	1998.281064	11.680909	-0.011758	2.574600
62.701921	1998.287341	11.685914	-0.011792	2.574639
62.617334	1998.381687	11.690919	-0.011777	2.574681
62.560458	1998.268363	11.695923	-0.011766	2.574601
62.457991	1998.341174	11.700928	-0.011748	2.574627
62.535295	1998.300776	11.705933	-0.011762	2.574617
62.461952	1998.291445	11.710938	-0.011749	2.574598
62.692550	1998.332153	11.715943	-0.011791	2.574666
62.670762	1998.354723	11.720947	-0.011787	2.574676
62.609662	1998.283906	11.725952	-0.011777	2.574621
62.705556	1998.318515	11.730957	-0.011794	2.574660
62.540274	1998.312469	11.735962	-0.011764	2.574626
62.533895	1998.340529	11.740967	-0.011763	2.574642
62.680646	1998.298345	11.745971	-0.011790	2.574644
62.656777	1998.311115	11.750976	-0.011786	2.574648
62.586192	1998.346237	11.755981	-0.011774	2.574656
62.626205	1998.308022	11.760986	-0.011781	2.574640
62.591664	1998.313861	11.765991	-0.011775	2.574638
62.503807	1998.301311	11.770995	-0.011759	2.574614
62.705605	1998.310576	11.776000	-0.011796	2.574657
62.640024	1998.298120	11.781005	-0.011784	2.574638
62.633396	1998.353229	11.786010	-0.011783	2.574671
62.606261	1998.309485	11.791015	-0.011779	2.574639
62.683207	1998.313471	11.796019	-0.011793	2.574656
62.673400	1998.342320	11.801024	-0.011791	2.574672
62.707513	1998.293940	11.806029	-0.011797	2.574649
62.662674	1998.297313	11.811034	-0.011790	2.574643
62.669866	1998.354579	11.816039	-0.011791	2.574679
62.600883	1998.314659	11.821043	-0.011779	2.574642
62.566257	1998.299403	11.826048	-0.011773	2.574627
62.604212	1998.288786	11.831053	-0.011780	2.574628
62.568382	1998.336493	11.836058	-0.011774	2.574650
62.639115	1998.293513	11.841063	-0.011787	2.574637
62.587587	1998.358463	11.846067	-0.011777	2.574668
62.698304	1998.286018	11.851072	-0.011798	2.574644
62.624922	1998.372629	11.856077	-0.011785	2.574684
62.461083	1998.296168	11.861082	-0.011755	2.574607
62.417849	1998.317373	11.866087	-0.011748	2.574612
62.443853	1998.308102	11.871091	-0.011753	2.574611
62.589425	1998.331671	11.876096	-0.011779	2.574653
62.602449	1998.300903	11.881101	-0.011782	2.574637
62.551416	1998.331859	11.886106	-0.011773	2.574646
62.528197	1998.310334	11.891111	-0.011769	2.574629
62.540699	1998.298809	11.896115	-0.011771	2.574625
62.508152	1998.352132	11.901120	-0.011765	2.574651
62.436698	1998.330267	11.906125	-0.011753	2.574625
62.552442	1998.299550	11.911130	-0.011774	2.574628
62.581910	1998.298895	11.916135	-0.011779	2.574633
62.446678	1998.335107	11.921139	-0.011755	2.574630
62.502447	1998.284466	11.926144	-0.011765	2.574610
62.417547	1998.311730	11.931149	-0.011750	2.574611
62.604340	1998.344389	11.936154	-0.011784	2.574666
62.675927	1998.278757	11.941159	-0.011797	2.574639
62.592824	1998.345169	11.946163	-0.011782	2.574665
62.652688	1998.311603	11.951168	-0.011794	2.574656
62.563012	1998.304695	11.956173	-0.011778	2.574635
62.519827	1998.351331	11.961178	-0.011770	2.574656
62.581842	1998.278688	11.966183	-0.011781	2.574623
62.524238	1998.334544	11.971187	-0.011771	2.574647
62.597403	1998.315508	11.976192	-0.011785	2.574649
62.580499	1998.310891	11.981197	-0.011782	2.574643
62.700582	1998.337380	11.986202	-0.011804	2.574682
62.725967	1998.295217	11.991207	-0.011808	2.574661
62.648574	1998.345389	11.996211	-0.011795	2.574677
62.606958	1998.285184	12.001216	-0.011787	2.574633
62.548458	1998.338006	12.006221	-0.011777	2.574655
62.426409	1998.307612	12.011226	-0.011755	2.574613
62.518765	1998.304366	12.016231	-0.011772	2.574629
62.471101	1998.304018	12.021235	-0.011764	2.574620
62.575365	1998.334300	12.026240	-0.011783	2.574658
62.596652	1998.308397	12.031245	-0.011787	2.574647
62.601982	1998.321445	12.036250	-0.011788	2.574656
62.553314	1998.333107	12.041255	-0.011779	2.574654
62.546597	1998.335571	12.046259	-0.011778	2.574655
62.450077	1998.304537	12.051264	-0.011761	2.574618
62.622214	1998.333765	12.056269	-0.011792	2.574668
62.637251	1998.312308	12.061274	-0.011795	2.574658
62.520866	1998.321668	12.066279	-0.011774	2.574642
62.599431	1998.312693	12.071283	-0.011789	2.574651
62.609123	1998.320089	12.076288	-0.011791	2.574658
62.571496	1998.299639	12.081293	-0.011784	2.574639
62.505445	1998.337454	12.086298	-0.011772	2.574650
62.678232	1998.306179	12.091303	-0.011804	2.574663
62.564740	1998.319748	12.096307	-0.011784	2.574650
62.474700	1998.342214	12.101312	-0.011767	2.574647
62.557850	1998.298256	12.106317	-0.011783	2.574636
62.626815	1998.313322	12.111322	-0.011795	2.574659
62.682360	1998.335015	12.116327	-0.011806	2.574682
62.699604	1998.341131	12.121331	-0.011809	2.574690
62.722938	1998.312824	12.126336	-0.011813	2.574677
62.788680	1998.321237	12.131341	-0.011825	2.574694
62.780640	1998.323848	12.136346	-0.011824	2.574695
62.643896	1997.989278	12.141351	-0.011800	2.574464

62.739751	1997.737402	12.146355	-0.011817	2.574328
62.532734	1996.929229	12.151360	-0.011780	2.573793
62.688270	1995.752305	12.156365	-0.011808	2.573100
62.572955	1994.375137	12.161370	-0.011787	2.572234
62.470744	1992.913906	12.166375	-0.011769	2.571317
62.569543	1991.236567	12.171379	-0.011787	2.570305
62.649061	1989.506066	12.176384	-0.011801	2.569257
62.576452	1987.679416	12.181389	-0.011788	2.568120
62.569395	1985.838703	12.186394	-0.011787	2.566987
62.454896	1983.993741	12.191399	-0.011766	2.565830
62.543797	1982.071209	12.196403	-0.011782	2.564663
62.416960	1980.145072	12.201408	-0.011760	2.563453
62.351401	1978.181958	12.206413	-0.011748	2.562231
62.369199	1976.211101	12.211418	-0.011751	2.561020
62.317874	1974.272104	12.216423	-0.011742	2.559814
62.388807	1972.243664	12.221427	-0.011755	2.558576
62.404766	1970.237497	12.226432	-0.011758	2.557340
62.345326	1968.249980	12.231437	-0.011747	2.556101
62.418200	1966.327122	12.236442	-0.011760	2.554927
62.391412	1964.300248	12.241447	-0.011755	2.553669
62.434089	1962.275891	12.246451	-0.011763	2.552425
62.326675	1960.290236	12.251456	-0.011744	2.551175
62.340337	1958.318530	12.256461	-0.011746	2.549957
62.309170	1956.304517	12.261466	-0.011740	2.548704
62.328051	1954.298884	12.266471	-0.011744	2.547464
62.248646	1952.303341	12.271475	-0.011730	2.546212
62.259681	1950.364186	12.276480	-0.011732	2.545011
62.349905	1948.283600	12.281485	-0.011748	2.543737
62.385687	1946.284235	12.286490	-0.011754	2.542502
62.232605	1944.318160	12.291495	-0.011727	2.541252
62.183336	1942.383879	12.296499	-0.011718	2.540040
62.108601	1940.345153	12.301504	-0.011704	2.538758
62.106435	1938.338712	12.306509	-0.011704	2.537509
62.195123	1936.295461	12.311514	-0.011720	2.536254
62.129725	1934.419562	12.316519	-0.011708	2.535073
62.125585	1932.362798	12.321523	-0.011708	2.533791
62.314930	1930.274935	12.326528	-0.011742	2.532525
62.241479	1928.303972	12.331533	-0.011729	2.531282
62.224829	1926.345124	12.336538	-0.011726	2.530057
62.214267	1924.310638	12.341543	-0.011724	2.528784
62.182253	1922.318964	12.346547	-0.011718	2.527534
62.145279	1920.329052	12.351552	-0.011711	2.526283
61.994343	1918.418440	12.356557	-0.011684	2.525060
61.947228	1916.368005	12.361562	-0.011676	2.523768
62.049822	1914.328632	12.366567	-0.011694	2.522511
62.056658	1912.322566	12.371571	-0.011696	2.521257
62.151571	1910.343566	12.376576	-0.011713	2.520035
62.010950	1908.341321	12.381581	-0.011687	2.518753
62.091074	1906.315538	12.386586	-0.011702	2.517498
62.012300	1904.340681	12.391591	-0.011688	2.516244
61.980480	1902.424518	12.396595	-0.011682	2.515035
61.982975	1900.377776	12.401600	-0.011682	2.513750
62.021790	1898.330876	12.406605	-0.011689	2.512471
61.919264	1896.366568	12.411610	-0.011671	2.511216
62.035224	1894.362307	12.416615	-0.011692	2.509978
62.004211	1892.351276	12.421619	-0.011686	2.508706
62.014056	1890.331215	12.426624	-0.011688	2.507436
61.899317	1888.380123	12.431629	-0.011668	2.506185
61.751039	1886.458397	12.436634	-0.011641	2.504945
61.872133	1884.356255	12.441639	-0.011663	2.503643
61.914989	1882.338298	12.446643	-0.011670	2.502378
61.777422	1880.385641	12.451648	-0.011646	2.501119
61.875491	1878.382647	12.456653	-0.011663	2.499873
61.715006	1876.389160	12.461658	-0.011634	2.498582
61.785547	1874.363543	12.466663	-0.011647	2.497315
61.638875	1872.428854	12.471667	-0.011621	2.496063
61.839171	1870.400891	12.476672	-0.011657	2.494818
61.779675	1868.373386	12.481677	-0.011646	2.493523
61.682797	1866.395877	12.486682	-0.011629	2.492251
61.633695	1864.408162	12.491687	-0.011620	2.490982
61.707077	1862.383076	12.496691	-0.011633	2.489712
61.655140	1860.352780	12.501696	-0.011624	2.488414
61.808230	1858.316789	12.506701	-0.011652	2.487151
61.658310	1856.399810	12.511706	-0.011624	2.485904
61.669434	1854.414887	12.516711	-0.011627	2.484645
61.523801	1852.407780	12.521715	-0.011600	2.483341
61.409091	1850.424627	12.526720	-0.011580	2.482057
61.468899	1848.418480	12.531725	-0.011590	2.480792
61.484274	1846.421628	12.536730	-0.011593	2.479523
61.601399	1844.335195	12.541735	-0.011614	2.478217
61.627787	1842.337011	12.546739	-0.011619	2.476949
61.635552	1840.406258	12.551744	-0.011621	2.475719
61.695730	1838.374725	12.556749	-0.011632	2.474434
61.417882	1836.435168	12.561754	-0.011581	2.473142
61.489402	1834.408103	12.566759	-0.011594	2.471861
61.321585	1832.449966	12.571763	-0.011564	2.470577
61.427484	1830.414626	12.576768	-0.011583	2.469296
61.407732	1828.394414	12.581773	-0.011580	2.468000
61.448264	1826.382278	12.586778	-0.011587	2.466720
61.262110	1824.485177	12.591783	-0.011553	2.465468
61.352846	1822.421378	12.596787	-0.011570	2.464164
61.369693	1820.379004	12.601792	-0.011573	2.462858
61.207450	1818.449885	12.606797	-0.011544	2.461589
61.326125	1816.424181	12.611802	-0.011565	2.460312
61.207822	1814.461207	12.616807	-0.011544	2.459028
61.123939	1812.432070	12.621811	-0.011529	2.457708
61.219808	1810.430610	12.626816	-0.011546	2.456441
61.293102	1808.448289	12.631821	-0.011559	2.455181
61.206977	1806.450957	12.636826	-0.011544	2.453879
61.253004	1804.405167	12.641831	-0.011552	2.452571
61.195331	1802.446995	12.646835	-0.011542	2.451298
61.109465	1800.458854	12.651840	-0.011526	2.450000
61.271503	1798.408017	12.656845	-0.011556	2.448710
61.042209	1796.425214	12.661850	-0.011514	2.447385
61.252683	1794.420514	12.666855	-0.011552	2.446133
61.090485	1792.453464	12.671859	-0.011523	2.444830
61.249079	1790.407158	12.676864	-0.011552	2.443540
61.199711	1788.398200	12.681869	-0.011543	2.442231
60.976885	1786.520689	12.686874	-0.011502	2.440972
60.844101	1784.497967	12.691879	-0.011478	2.439637
60.847132	1782.488590	12.696883	-0.011479	2.438336
61.029465	1780.389882	12.701888	-0.011512	2.437013
61.118931	1778.455565	12.706893	-0.011528	2.435777
61.020321	1776.459878	12.711898	-0.011510	2.434463
61.012978	1774.454596	12.716903	-0.011509	2.433161
61.039878	1772.416235	12.721907	-0.011514	2.431843
61.014418	1770.464603	12.726912	-0.011509	2.430570
60.883170	1768.477139	12.731917	-0.011486	2.429252
60.886067	1766.464113	12.736922	-0.011486	2.427943
60.809002	1764.488934	12.741927	-0.011472	2.426643
61.041429	1762.453213	12.746931	-0.011515	2.425364
60.996532	1760.421078	12.751936	-0.011506	2.424032
60.937242	1758.442898	12.756941	-0.011496	2.422731
60.978894	1756.459631	12.761946	-0.011503	2.421446
60.953325	1754.496333	12.766951	-0.011499	2.420160
60.826157	1752.471881	12.771955	-0.011476	2.418813
60.836699	1750.461071	12.776960	-0.011478	2.417502
60.944749	1748.487964	12.781965	-0.011497	2.416234
60.714185	1746.576042	12.786970	-0.011456	2.414938
60.678553	1744.515037	12.791975	-0.011449	2.413582
60.769742	1742.465191	12.796979	-0.011466	2.412259
60.766382	1740.485342	12.801984	-0.011465	2.410962
60.811335	1738.470128	12.806989	-0.011473	2.409651
60.641437	1736.489858	12.811994	-0.011443	2.408318
60.688154	1734.469633	12.816999	-0.011451	2.407002
60.674959	1732.511187	12.822003	-0.011449	2.405714
60.631027	1730.505123	12.827008	-0.011441	2.404388
60.549859	1728.487284	12.832013	-0.011426	2.403046
60.857712	1726.435405	12.837018	-0.011482	2.401760
60.810573	1724.449076	12.842023	-0.011473	2.400444
60.739152	1722.480640	12.847027	-0.011461	2.399134
60.478067	1720.524863	12.852032	-0.011413	2.397793
60.608573	1718.539448	12.857037	-0.011437	2.396511
60.548642	1716.519119	12.862042	-0.011426	2.395167
60.583472	1714.493890	12.867047	-0.011433	2.393839
60.520055	1712.495369	12.872051	-0.011421	2.392507
60.539489	1710.532463	12.877056	-0.011425	2.391215
60.512039	1708.492615	12.882061	-0.011420	2.389862
60.619023	1706.461665	12.887066	-0.011439	2.388541
60.559996	1704.469557	12.892071	-0.011428	2.387211
60.446854	1702.581012	12.897075	-0.011408	2.385938
60.423849	1700.531585	12.902080	-0.011404	2.384577
60.461027	1698.505339	12.907085	-0.011411	2.383242
60.405018	1696.524304	12.912090	-0.011401	2.381918
60.572057	1694.515848	12.917095	-0.011431	2.380620
60.527250	1692.491198	12.922099	-0.011423	2.379267
60.492238	1690.504140	12.927104	-0.011416	2.377941
60.449903	1688.560878	12.932109	-0.011409	2.376641
60.468283	1686.586622	12.937114	-0.011412	2.375333
60.400137	1684.542351	12.942119	-0.011400	2.373959
60.440561	1682.545390	12.947123	-0.011407	2.372638
60.343415	1680.564068	12.952128	-0.011390	2.371299
60.457475	1678.510296	12.957133	-0.011410	2.369955
60.344857	1676.526487	12.962138	-0.011390	2.368609
60.380581	1674.536395	12.967143	-0.011397	2.367289
60.264375	1672.590362	12.972147	-0.011376	2.365966
60.321630	1670.547621	12.977152	-0.011386	2.364614
60.233287	1668.545866	12.982157	-0.011370	2.363259
60.412873	1666.503900	12.987162	-0.011402	2.361931
60.402518	1664.530728	12.992167	-0.011401	2.360609
60.289975	1662.574250	12.997171	-0.011380	2.359276
60.422964	1660.491198	13.002176	-0.011404	2.357909
60.371560	1658.561929	13.007181	-0.011395	2.356606
60.262536	1656.598436	13.012186	-0.011375	2.355267
60.299469	1654.575599	13.017191	-0.011382	2.353918
60.203795	1652.551407	13.022195	-0.011365	2.352540
60.172380	1650.618482	13.027200	-0.011359	2.351235
60.112584	1648.598669	13.032205	-0.011349	2.349865
60.202709	1646.543624	13.037210	-0.011365	2.348503
60.243660	1644.530405	13.042215	-0.011372	2.347157
60.095632	1642.635383	13.047219	-0.011346	2.345851
60.050133	1640.578248	13.052224	-0.011337	2.344456
60.088987	1638.575385	13.057229	-0.011344	2.343114
59.877865	1636.648164	13.062234	-0.011306	2.341771
60.018164	1634.604510	13.067239	-0.011332	2.340422
60.028114	1632.590075	13.072243	-0.011333	2.339064
60.032891	1630.571263	13.077248	-0.011334	2.337702
60.135009	1628.596577	13.082253	-0.011353	2.336389
59.997095	1626.664204	13.087258	-0.011328	2.335053
59.995457	1624.582596	13.092263	-0.011328	2.333644
60.045644	1622.588120	13.097267	-0.011337	2.332305
59.936644	1620.629896	13.102272	-0.011317	2.330955
59.956711	1618.583822	13.107277	-0.011321	2.329573
59.783969	1616.609496	13.112282	-0.011290	2.328197
59.886652	1614.626182	13.117287	-0.011308	2.326873
59.849078	1612.605654	13.122291	-0.011301	2.325494
59.830423	1610.619451	13.127296	-0.011298	2.324140
59.982237	1608.539182	13.132301	-0.011326	2.322759
60.043111	1606.579014	13.137306	-0.011337	2.321439
59.924598	1604.617278	13.142311	-0.011315	2.320078
59.663832	1602.657809	13.147315	-0.011268	2.318689
59.671123	1600.645034	13.152320	-0.011269	2.317319
59.751676	1598.680951	13.157325	-0.011284	2.315997
59.635547	1596.658228	13.162330	-0.011263	2.314592
59.767385	1594.610370	13.167335	-0.011287	2.313223
59.747615	1592.612651	13.172339	-0.011283	2.311854
59.717188	1590.632708	13.177344	-0.011278	2.310495
59.602135	1588.646967	13.182349	-0.011257	2.309113
59.642784	1586.616512	13.187354	-0.011265	2.307732
59.704713	1584.649864	13.192359	-0.011276	2.306399
59.669244	1582.644089	13.197363	-0.011269	2.305018
59.644073	1580.623998	13.202368	-0.011265	2.303628
59.694846	1578.644970	13.207373	-0.011274	2.302282
59.515300	1576.689678	13.212378	-0.011242	2.300901
59.638540	1574.657245	13.217383	-0.011264	2.299532
59.655469	1572.599225	13.222387	-0.011267	2.298122
59.661001	1570.707200	13.227392	-0.011268	2.296823
59.501366	1568.729128	13.232397	-0.011239	2.295428
59.587250	1566.679386	13.237402	-0.011255	2.294036
59.383290	1564.706864	13.242407	-0.011218	2.292633
59.505476	1562.693220	13.247411	-0.011240	2.291272
59.602052	1560.638332	13.252416	-0.011258	2.289876
59.525549	1558.642987	13.257421	-0.011244	2.288483
59.506569	1556.672810	13.262426	-0.011240	2.287119
59.468927	1554.695231	13.267431	-0.011234	2.285745
59.508120	1552.674341	13.272435	-0.011241	2.284356
59.382746	1550.681225	13.277440	-0.011218	2.282951
59.290896	1548.732024	13.282445	-0.011202	2.281582
59.563249	1546.646978	13.287450	-0.011251	2.280198
59.327742	1544.687324	13.292455	-0.011208	2.278789
59.511370	1542.686222	13.297459	-0.011242	2.277441
59.525418	1540.683689	13.302464	-0.011244	2.276055
59.404487	1538.712780	13.307469	-0.011222	2.274661
59.228847	1536.730257	13.312474	-0.011191	2.273246
59.564573	1534.672648	13.317479	-0.011251	2.271889
59.352074	1532.705588	13.322483	-0.011213	2.270475
59.555470	1530.657300	13.327488	-0.011250	2.269094
59.350372	1528.694238	13.332493	-0.011213	2.267682
59.415472	1526.756953	13.337498	-0.011225	2.266347
59.235247	1524.738387	13.342503	-0.011192	2.264900
59.171261	1522.759638	13.347507	-0.011180	2.263506
59.338747	1520.704591	13.352512	-0.011211	2.262109
59.425072	1518.705430	13.357517	-0.011226	2.260732
59.210161	1516.715720	13.362522	-0.011188	2.259294
59.077071	1514.784283	13.367527	-0.011164	2.257914
59.129574	1512.774040	13.372531	-0.011173	2.256519
59.265761	1510.733686	13.377536	-0.011198	2.255121
59.108616	1508.727987	13.382541	-0.011169	2.253681
59.238784	1506.728538	13.387546	-0.011193	2.252308
59.180686	1504.713469	13.392551	-0.011182	2.250882
59.289779	1502.703981	13.397555	-0.011202	2.249496
59.121192	1500.704834	13.402560	-0.011172	2.248054
59.248852	1498.758334	13.407565	-0.011195	2.246715
59.036828	1496.771262	13.412570	-0.011157	2.245270
58.994205	1494.768099	13.417575	-0.011149	2.243851
58.992561	1492.770095	13.422579	-0.011149	2.242444
59.102319	1490.763791	13.427584	-0.011168	2.241055
58.929918	1488.767635	13.432589	-0.011137	2.239610
58.953126	1486.758912	13.437594	-0.011142	2.238198
59.096829	1484.765479	13.442599	-0.011168	2.236823
59.075280	1482.777602	13.447603	-0.011164	2.235414
58.971070	1480.765495	13.452608	-0.011145	2.233969
58.895197	1478.793402	13.457613	-0.011131	2.232557
59.001722	1476.761064	13.462618	-0.011151	2.231143
58.994731	1474.754481	13.467623	-0.011149	2.229720
59.037488	1472.717123	13.472627	-0.011157	2.228287
59.129882	1470.757104	13.477632	-0.011174	2.226918
58.914615	1468.807784	13.482637	-0.011135	2.225486
58.995243	1466.785343	13.487642	-0.011150	2.224069
58.956954	1464.776602	13.492647	-0.011143	2.222633
58.880188	1462.852487	13.497651	-0.011129	2.221248
58.801562	1460.807996	13.502656	-0.011115	2.219777
59.085488	1458.739351	13.507661	-0.011166	2.218368
58.703338	1456.902915	13.512666	-0.011097	2.216974
58.828454	1454.856690	13.517671	-0.011120	2.215544
58.771732	1452.842746	13.522675	-0.011109	2.214095
58.821069	1450.818784	13.527680	-0.011118	2.212663
58.825684	1448.814464	13.532685	-0.011119	2.211232
58.809844	1446.824699	13.537690	-0.011116	2.209807
58.729405	1444.805882	13.542695	-0.011102	2.208346
58.906241	1442.826906	13.547699	-0.011134	2.206970
58.687651	1440.841292	13.552704	-0.011094	2.205499
58.701799	1438.839780	13.557709	-0.011097	2.204069
58.602475	1436.868860	13.562714	-0.011079	2.202633
58.723924	1434.830636	13.567719	-0.011101	2.201199
58.777053	1432.807368	13.572723	-0.011111	2.199759
58.644536	1430.835499	13.577728	-0.011087	2.198313
58.649238	1428.888436	13.582733	-0.011088	2.196914
58.605546	1426.904405	13.587738	-0.011080	2.195478
58.727238	1424.792349	13.592743	-0.011102	2.193986
58.615399	1422.888771	13.597747	-0.011082	2.192589
58.413726	1420.916269	13.602752	-0.011045	2.191122
58.391295	1418.896358	13.607757	-0.011041	2.189660
58.511181	1416.837282	13.612762	-0.011063	2.188202
58.535884	1414.905776	13.617767	-0.011067	2.186813
58.463459	1412.876820	13.622771	-0.011054	2.185331
58.486280	1410.872469	13.627776	-0.011058	2.183887
58.537011	1408.869824	13.632781	-0.011068	2.182450
58.483755	1406.890166	13.637786	-0.011058	2.181005
58.633194	1404.811324	13.642791	-0.011085	2.179533
58.599157	1402.858133	13.647795	-0.011079	2.178110
58.431213	1400.953612	13.652800	-0.011049	2.176689
58.388344	1398.956800	13.657805	-0.011041	2.175230
58.353065	1396.920900	13.662810	-0.011035	2.173743
58.415198	1394.921478	13.667815	-0.011046	2.172305
58.364457	1392.902915	13.672819	-0.011037	2.170825
58.302081	1390.916249	13.677824	-0.011026	2.169364
58.378113	1388.881458	13.682829	-0.011039	2.167900
58.208136	1386.981265	13.687834	-0.011009	2.166476
58.253973	1384.924546	13.692839	-0.011017	2.164987
58.403327	1382.853956	13.697843	-0.011044	2.163510
58.363587	1380.902952	13.702848	-0.011037	2.162077
58.185603	1378.968748	13.707853	-0.011005	2.160622
58.180822	1376.910435	13.712858	-0.011004	2.159115
58.190281	1374.964580	13.717863	-0.011006	2.157694
58.176956	1372.965696	13.722867	-0.011003	2.156227
58.172583	1370.959993	13.727872	-0.011002	2.154757
58.275223	1368.896596	13.732877	-0.011021	2.153268
58.251781	1366.942900	13.737882	-0.011017	2.151829
58.027491	1364.980289	13.742887	-0.010976	2.150335
58.244368	1362.908557	13.747891	-0.011016	2.148864
58.130842	1360.974288	13.752896	-0.010995	2.147415
58.115457	1358.979251	13.757901	-0.010992	2.145944
58.166634	1356.932103	13.762906	-0.011002	2.144449
58.250340	1354.937382	13.767911	-0.011017	2.142999
58.032519	1353.007358	13.772915	-0.010977	2.141525
58.215526	1350.949945	13.777920	-0.011011	2.140050
57.996405	1348.986973	13.782925	-0.010971	2.138549
58.025540	1347.074456	13.787930	-0.010976	2.137143
57.958250	1345.030889	13.792935	-0.010964	2.135616
58.025235	1342.990137	13.797939	-0.010976	2.134122
57.994730	1341.018864	13.802944	-0.010971	2.132656
58.152527	1338.975431	13.807949	-0.010999	2.131179
58.011856	1336.964908	13.812954	-0.010974	2.129656
57.964802	1335.010656	13.817959	-0.010965	2.128195
57.963245	1333.014611	13.822963	-0.010965	2.126713
57.994583	1331.008374	13.827968	-0.010971	2.125230
57.940376	1328.985171	13.832973	-0.010961	2.123713
58.005241	1327.032669	13.837978	-0.010973	2.122276
57.984466	1325.005369	13.842983	-0.010969	2.120761
57.978457	1323.005160	13.847987	-0.010968	2.119270
57.918411	1321.055066	13.852992	-0.010957	2.117802
58.023655	1319.035384	13.857997	-0.010976	2.116320
57.859020	1317.042771	13.863002	-0.010947	2.114793
57.953329	1315.041522	13.868007	-0.010964	2.113321
57.851787	1313.068954	13.873011	-0.010945	2.111822
57.921661	1311.040764	13.878016	-0.010958	2.110321
57.652762	1309.084300	13.883021	-0.010909	2.108792
57.845783	1307.086336	13.888026	-0.010944	2.107341
57.620576	1305.105659	13.893031	-0.010904	2.105802
57.834607	1303.030693	13.898035	-0.010942	2.104297
57.831027	1301.060013	13.903040	-0.010942	2.102816
57.884451	1299.069934	13.908045	-0.010952	2.101334
57.711744	1297.077053	13.913050	-0.010920	2.099794
57.669804	1295.128722	13.918055	-0.010913	2.098318
57.528369	1293.177253	13.923059	-0.010887	2.096814
57.601307	1291.133951	13.928064	-0.010900	2.095292
57.659658	1289.085828	13.933069	-0.010911	2.093762
57.779827	1287.083623	13.938074	-0.010933	2.092280
57.546485	1285.112494	13.943079	-0.010891	2.090735
57.739156	1283.054933	13.948083	-0.010926	2.089227
57.594736	1281.122191	13.953088	-0.010899	2.087731
57.721834	1279.082578	13.958093	-0.010922	2.086218
57.476286	1277.121968	13.963098	-0.010878	2.084673
57.591325	1275.121884	13.968103	-0.010899	2.083186
57.528132	1273.122496	13.973107	-0.010888	2.081654
57.624090	1271.089239	13.978112	-0.010905	2.080134
57.665612	1269.081108	13.983117	-0.010912	2.078619
57.655913	1267.134626	13.988122	-0.010911	2.077137
57.524190	1265.151677	13.993127	-0.010887	2.075596
57.601855	1263.130937	13.998131	-0.010901	2.074077
57.618464	1261.135399	14.003136	-0.010904	2.072561
57.734960	1259.093809	14.008141	-0.010925	2.071033
57.529905	1257.125311	14.013146	-0.010888	2.069481
57.523916	1255.181719	14.018151	-0.010887	2.067996
57.443768	1253.188872	14.023155	-0.010873	2.066454
57.398993	1251.199000	14.028160	-0.010865	2.064921
57.514397	1249.169416	14.033165	-0.010885	2.063397
57.349437	1247.234070	14.038170	-0.010856	2.061874
57.314443	1245.195822	14.043175	-0.010849	2.060304
57.463689	1243.181339	14.048179	-0.010876	2.058796
57.373914	1241.238620	14.053184	-0.010860	2.057283
57.357295	1239.228066	14.058189	-0.010857	2.055735
57.338114	1237.183725	14.063194	-0.010854	2.054159
57.445613	1235.190570	14.068199	-0.010873	2.052652
57.303112	1233.195968	14.073203	-0.010848	2.051082
57.275544	1231.208195	14.078208	-0.010843	2.049543
57.296506	1229.238848	14.083213	-0.010846	2.048031
57.492052	1227.180234	14.088218	-0.010882	2.046491
57.222425	1225.236851	14.093223	-0.010833	2.044924
57.316008	1223.232536	14.098227	-0.010850	2.043398
57.286178	1221.230381	14.103232	-0.010845	2.041843
57.515795	1219.161316	14.108237	-0.010886	2.040299
57.271334	1217.241790	14.113242	-0.010842	2.038751
57.245137	1215.291560	14.118247	-0.010837	2.037234
57.125260	1213.275086	14.123251	-0.010816	2.035640
57.236596	1211.244631	14.128256	-0.010836	2.034092
57.139746	1209.293593	14.133261	-0.010818	2.032552
57.151265	1207.273322	14.138266	-0.010821	2.030984
57.098041	1205.254272	14.143271	-0.010811	2.029400
57.076904	1203.323032	14.148275	-0.010807	2.027891
57.150707	1201.261819	14.153280	-0.010821	2.026304
57.144578	1199.259054	14.158285	-0.010819	2.024741
57.023713	1197.319332	14.163290	-0.010798	2.023197
57.052219	1195.322029	14.168295	-0.010803	2.021644
56.986731	1193.307750	14.173299	-0.010791	2.020053
57.139048	1191.294223	14.178304	-0.010819	2.018517
57.057474	1189.318994	14.183309	-0.010804	2.016950
57.060396	1187.312404	14.188314	-0.010804	2.015379
56.810313	1185.379121	14.193319	-0.010759	2.013800
56.907933	1183.356950	14.198323	-0.010777	2.012238
56.635754	1181.386905	14.203328	-0.010728	2.010622
56.943498	1179.296654	14.208333	-0.010783	2.009058
56.919043	1177.317101	14.213338	-0.010779	2.007495
56.779359	1175.358186	14.218343	-0.010754	2.005917
56.698425	1173.357465	14.223347	-0.010739	2.004321
56.665637	1171.405699	14.228352	-0.010733	2.002774
56.628580	1169.360529	14.233357	-0.010727	2.001151
56.740383	1167.327269	14.238362	-0.010747	1.999574
56.794429	1165.362469	14.243367	-0.010757	1.998035
56.778571	1163.369743	14.248371	-0.010754	1.996455
56.628438	1161.376407	14.253376	-0.010727	1.994839
56.825490	1159.357232	14.258381	-0.010762	1.993291
56.652773	1157.386869	14.263386	-0.010731	1.991684
56.749317	1155.343393	14.268391	-0.010749	1.990088
56.712985	1153.378036	14.273395	-0.010742	1.988518
56.643355	1151.418569	14.278400	-0.010730	1.986943
56.764116	1149.349841	14.283405	-0.010752	1.985329
56.566370	1147.449845	14.288410	-0.010716	1.983766
56.737106	1145.386740	14.293415	-0.010747	1.982167
56.648267	1143.420477	14.298419	-0.010731	1.980577
56.442034	1141.486712	14.303424	-0.010693	1.978981
56.572346	1139.470870	14.308429	-0.010717	1.977405
56.578319	1137.418686	14.313434	-0.010718	1.975767
56.568991	1135.444765	14.318439	-0.010716	1.974186
56.434223	1133.480440	14.323443	-0.010692	1.972579
56.516376	1131.442398	14.328448	-0.010707	1.970967
56.476604	1129.432777	14.333453	-0.010700	1.969346
56.434235	1127.491002	14.338458	-0.010692	1.967777
56.346574	1125.472256	14.343463	-0.010676	1.966133
56.281709	1123.498483	14.348467	-0.010665	1.964530
56.332173	1121.489030	14.353472	-0.010674	1.962927
56.431903	1119.456259	14.358477	-0.010692	1.961317
56.259963	1117.497424	14.363482	-0.010661	1.959694
56.384632	1115.513232	14.368487	-0.010683	1.958127
56.248828	1113.512876	14.373491	-0.010659	1.956477
56.333381	1111.480013	14.378496	-0.010674	1.954857
56.160580	1109.545891	14.383501	-0.010643	1.953249
56.300208	1107.492233	14.388506	-0.010668	1.951624
56.302266	1105.473079	14.393511	-0.010669	1.949990
56.164838	1103.566113	14.398515	-0.010644	1.948408
56.124019	1101.557524	14.403520	-0.010637	1.946769
56.129137	1099.560087	14.408525	-0.010638	1.945149
56.094125	1097.585067	14.413530	-0.010631	1.943535
56.102408	1095.558061	14.418535	-0.010633	1.941889
56.018847	1093.561742	14.423539	-0.010618	1.940243
56.204643	1091.544678	14.428544	-0.010651	1.938650
55.924872	1089.603450	14.433549	-0.010601	1.936993
56.091656	1087.533885	14.438554	-0.010631	1.935349
55.949913	1085.577320	14.443559	-0.010605	1.933714
55.890151	1083.600498	14.448563	-0.010595	1.932083
55.901521	1081.550660	14.453568	-0.010597	1.930409
56.089851	1079.540161	14.458573	-0.010631	1.928814
55.952556	1077.583795	14.463578	-0.010606	1.927175
56.032484	1075.556166	14.468583	-0.010621	1.925534
55.788717	1073.639109	14.473587	-0.010576	1.923895
55.876586	1071.616474	14.478592	-0.010592	1.922258
55.864992	1069.582261	14.483597	-0.010590	1.920582
55.925769	1067.625557	14.488602	-0.010601	1.918989
55.669622	1065.674102	14.493607	-0.010555	1.917313
55.721249	1063.645129	14.498611	-0.010564	1.915655
55.704803	1061.668497	14.503616	-0.010562	1.914020
55.716752	1059.650835	14.508621	-0.010564	1.912358
55.789818	1057.594560	14.513626	-0.010577	1.910678
55.877016	1055.621466	14.518631	-0.010593	1.909070
55.664713	1053.681921	14.523635	-0.010554	1.907407
55.734222	1051.640538	14.528640	-0.010567	1.905735
55.714040	1049.658276	14.533645	-0.010563	1.904086
55.702524	1047.685995	14.538650	-0.010561	1.902446
55.597875	1045.689716	14.543655	-0.010542	1.900760
55.665312	1043.719466	14.548659	-0.010555	1.899140
55.667203	1041.710438	14.553664	-0.010555	1.897469
55.556450	1039.734786	14.558669	-0.010535	1.895794
55.540479	1037.738329	14.563674	-0.010532	1.894125
55.647396	1035.690701	14.568679	-0.010552	1.892446
55.744544	1033.638143	14.573683	-0.010569	1.890759
55.692836	1031.724592	14.578688	-0.010560	1.889146
55.702098	1029.695744	14.583693	-0.010562	1.887451
55.670394	1027.703743	14.588698	-0.010556	1.885775
55.584219	1025.741045	14.593703	-0.010540	1.884107
55.551366	1023.754839	14.598707	-0.010534	1.882432
55.409717	1021.785611	14.603712	-0.010509	1.880740
55.675308	1019.730821	14.608717	-0.010557	1.879086
55.483682	1017.789910	14.613722	-0.010522	1.877402
55.675191	1015.734507	14.618727	-0.010557	1.875724
55.427223	1013.812150	14.623731	-0.010512	1.874036
55.453118	1011.813120	14.628736	-0.010517	1.872358
55.341245	1009.796534	14.633741	-0.010497	1.870625
55.358100	1007.848787	14.638746	-0.010500	1.868985
55.249979	1005.846495	14.643751	-0.010480	1.867262
55.402587	1003.800933	14.648755	-0.010508	1.865573
55.337412	1001.837822	14.653760	-0.010496	1.863892
55.367772	999.831541	14.658765	-0.010502	1.862200
55.307348	997.826346	14.663770	-0.010491	1.860481
55.305784	995.886176	14.668775	-0.010490	1.858833
55.190397	993.892602	14.673779	-0.010470	1.857106
55.223213	991.872252	14.678784	-0.010476	1.855396
55.149671	989.895269	14.683789	-0.010462	1.853692
55.291074	987.827579	14.688794	-0.010488	1.851969
55.106662	985.872432	14.693799	-0.010455	1.850249
55.244269	983.870193	14.698803	-0.010480	1.848578
55.149885	981.870380	14.703808	-0.010463	1.846842
55.103958	979.888468	14.708813	-0.010454	1.845133
54.988605	977.938694	14.713818	-0.010433	1.843431
55.266562	975.833089	14.718823	-0.010484	1.841704
55.123880	973.894180	14.723827	-0.010458	1.840000
55.245924	971.893874	14.728832	-0.010480	1.838317
55.282859	969.868531	14.733837	-0.010487	1.836586
55.154031	967.928972	14.738842	-0.010464	1.834881
55.104320	965.943504	14.743847	-0.010455	1.833157
55.042124	963.960591	14.748851	-0.010443	1.831430
55.090224	961.942375	14.753856	-0.010452	1.829702
55.004945	959.995588	14.758861	-0.010437	1.827997
54.852757	957.995798	14.763866	-0.010409	1.826225
55.071141	955.962738	14.768871	-0.010449	1.824528
54.812130	954.016069	14.773875	-0.010402	1.822768
55.030663	951.953005	14.778880	-0.010441	1.821042
54.915998	950.030302	14.783885	-0.010421	1.819341
54.966503	948.020375	14.788890	-0.010430	1.817609
54.932059	946.000671	14.793895	-0.010424	1.815844
54.835956	944.055064	14.798899	-0.010406	1.814123
54.775085	942.053706	14.803904	-0.010395	1.812362
54.660395	940.069370	14.808909	-0.010375	1.810599
54.744518	938.062231	14.813914	-0.010390	1.808871
54.903395	936.016974	14.818919	-0.010419	1.807130
54.815120	934.015149	14.823923	-0.010403	1.805354
54.759354	932.091402	14.828928	-0.010393	1.803655
54.785024	930.054852	14.833933	-0.010397	1.801878
54.726475	928.079562	14.838938	-0.010387	1.800128
54.535677	926.158729	14.843943	-0.010352	1.798387
54.649068	924.105558	14.848947	-0.010373	1.796616
54.616509	922.111570	14.853952	-0.010367	1.794852
54.635234	920.121409	14.858957	-0.010371	1.793106
54.608821	918.099931	14.863962	-0.010366	1.791316
54.699623	916.096956	14.868967	-0.010382	1.789576
54.719725	914.090438	14.873971	-0.010386	1.787810
54.643531	912.112752	14.878976	-0.010372	1.786040
54.579378	910.157940	14.883981	-0.010361	1.784291
54.567232	908.164287	14.888986	-0.010358	1.782522
54.441806	906.179601	14.893991	-0.010336	1.780726
54.721552	904.160121	14.898995	-0.010386	1.779016
54.519764	902.189033	14.904000	-0.010350	1.777206
54.570485	900.178331	14.909005	-0.010359	1.775433
54.296321	898.252827	14.914010	-0.010310	1.773638
54.498522	896.164887	14.919015	-0.010346	1.771837
54.258531	894.254410	14.924019	-0.010303	1.770063
54.390861	892.222116	14.929024	-0.010327	1.768287
54.404829	890.188190	14.934029	-0.010329	1.766474
54.437980	888.216086	14.939034	-0.010335	1.764719
54.418830	886.205049	14.944039	-0.010332	1.762913
54.337902	884.233750	14.949043	-0.010317	1.761122
54.364753	882.255591	14.954048	-0.010322	1.759355
54.431051	880.241689	14.959053	-0.010334	1.757565
54.370991	878.251512	14.964058	-0.010323	1.755758
54.488991	876.241196	14.969063	-0.010345	1.753984
54.376100	874.249934	14.974067	-0.010324	1.752156
54.329181	872.281495	14.979072	-0.010316	1.750367
54.349083	870.286906	14.984077	-0.010320	1.748572
54.172805	868.339325	14.989082	-0.010288	1.746759
54.150714	866.356547	14.994087	-0.010284	1.744958
54.278468	864.325822	14.999091	-0.010307	1.743158
54.076732	862.359196	15.004096	-0.010271	1.741314
54.285956	860.360098	15.009101	-0.010308	1.739563
53.961338	858.429669	15.014106	-0.010250	1.737711
54.084863	856.381490	15.019111	-0.010272	1.735886
54.052883	854.389378	15.024115	-0.010266	1.734063
53.983964	852.395877	15.029120	-0.010254	1.732225
54.033553	850.382820	15.034125	-0.010263	1.730403
54.069050	848.399421	15.039130	-0.010269	1.728603
53.911437	846.412875	15.044135	-0.010241	1.726739
54.004647	844.410582	15.049139	-0.010258	1.724935
53.948359	842.420802	15.054144	-0.010248	1.723095
53.810450	840.462816	15.059149	-0.010223	1.721257
53.900646	838.469984	15.064154	-0.010239	1.719455
53.754109	836.506724	15.069159	-0.010213	1.717605
53.807002	834.468899	15.074163	-0.010222	1.715747
53.828381	832.474884	15.079168	-0.010226	1.713916
53.793127	830.456463	15.084173	-0.010220	1.712044
53.724456	828.510004	15.089178	-0.010207	1.710227
53.678383	826.522347	15.094183	-0.010199	1.708376
53.732758	824.492014	15.099187	-0.010209	1.706514
53.612001	822.551221	15.104192	-0.010187	1.704680
53.688652	820.520191	15.109197	-0.010201	1.702821
53.497583	818.570439	15.114202	-0.010167	1.700952
53.661626	816.561406	15.119207	-0.010196	1.699136
53.653918	814.529390	15.124211	-0.010195	1.697244
53.647360	812.547504	15.129216	-0.010194	1.695396
53.624410	810.553320	15.134221	-0.010190	1.693530
53.780732	808.488655	15.139226	-0.010218	1.691652
53.578185	806.597224	15.144231	-0.010181	1.689822
53.667858	804.568477	15.149235	-0.010198	1.687953
53.540436	802.594872	15.154240	-0.010175	1.686065
53.759936	800.557132	15.159245	-0.010214	1.684224
53.583960	798.598838	15.164250	-0.010183	1.682331
53.529797	796.653239	15.169255	-0.010173	1.680486
53.553485	794.642238	15.174259	-0.010177	1.678603
53.592141	792.615738	15.179264	-0.010184	1.676707
53.516787	790.660108	15.184269	-0.010171	1.674840
53.537251	788.644514	15.189274	-0.010174	1.672944
53.274433	786.729394	15.194279	-0.010127	1.671052
53.283526	784.743419	15.199283	-0.010129	1.669177
53.115100	782.762175	15.204288	-0.010098	1.667248
53.314199	780.725440	15.209293	-0.010134	1.665380
53.119634	778.776957	15.214298	-0.010099	1.663469
53.440788	776.669159	15.219303	-0.010157	1.661569
53.236637	774.784581	15.224307	-0.010120	1.659711
53.312541	772.748666	15.229312	-0.010134	1.657797
53.167190	770.789045	15.234317	-0.010108	1.655882
53.147712	768.800870	15.239322	-0.010104	1.653979
53.109648	766.788383	15.244327	-0.010097	1.652043
53.365060	764.738685	15.249331	-0.010144	1.650164
53.308909	762.744230	15.254336	-0.010133	1.648236
53.224276	760.788972	15.259341	-0.010118	1.646334
53.066148	758.848854	15.264346	-0.010090	1.644421
53.204330	756.798964	15.269351	-0.010115	1.642495
53.089661	754.857911	15.274355	-0.010094	1.640590
53.042271	752.888107	15.279360	-0.010085	1.638678
53.143679	750.831934	15.284365	-0.010104	1.636727
53.012741	748.900867	15.289370	-0.010080	1.634820
53.133927	746.833319	15.294375	-0.010102	1.632861
52.999344	744.904927	15.299379	-0.010078	1.630950
52.926364	742.938144	15.304384	-0.010065	1.629021
52.975565	740.917278	15.309389	-0.010074	1.627076
52.907061	738.958554	15.314394	-0.010061	1.625151
52.942272	736.940070	15.319399	-0.010068	1.623200
52.922665	734.940086	15.324403	-0.010064	1.621246
52.817675	733.007085	15.329408	-0.010045	1.619327
52.852826	730.957940	15.334413	-0.010052	1.617339
52.961569	728.944926	15.339418	-0.010071	1.615407
52.657605	727.035882	15.344423	-0.010016	1.613440
52.790616	724.991487	15.349427	-0.010040	1.611481
52.731512	723.019072	15.354432	-0.010030	1.609527
52.733112	721.010964	15.359437	-0.010030	1.607556
52.555359	719.087112	15.364442	-0.009998	1.605606
52.586599	717.060827	15.369447	-0.010004	1.603621
52.694885	715.015180	15.374451	-0.010023	1.601641
52.669123	713.086776	15.379456	-0.010019	1.599729
52.673838	711.041072	15.384461	-0.010020	1.597710
52.733834	709.053055	15.389466	-0.010030	1.595763
52.658325	707.081352	15.394471	-0.010017	1.593785
52.645005	705.088140	15.399475	-0.010014	1.591804
52.550756	703.144653	15.404480	-0.009997	1.589843
52.714521	701.082109	15.409485	-0.010027	1.587847
52.499238	699.164698	15.414490	-0.009988	1.585867
52.594500	697.147041	15.419495	-0.010005	1.583888
52.470171	695.170505	15.424499	-0.009983	1.581874
52.571118	693.203704	15.429504	-0.010001	1.579942
52.440018	691.216553	15.434509	-0.009978	1.577910
52.392491	689.236368	15.439514	-0.009969	1.575911
52.495345	687.205912	15.444519	-0.009988	1.573909
52.549749	685.183841	15.449523	-0.009998	1.571897
52.408707	683.272292	15.454528	-0.009972	1.569927
52.507712	681.217852	15.459533	-0.009990	1.567892
52.338867	679.294037	15.464538	-0.009960	1.565896
52.379087	677.284770	15.469543	-0.009967	1.563881
52.415447	675.261464	15.474547	-0.009973	1.561849
52.465626	673.284058	15.479552	-0.009983	1.559864
52.241466	671.344832	15.484557	-0.009942	1.557823
52.368860	669.320248	15.489562	-0.009965	1.555812
52.346586	667.324107	15.494567	-0.009961	1.553777
52.425410	665.306264	15.499571	-0.009975	1.551751
52.267366	663.386114	15.504576	-0.009947	1.549741
52.355759	661.340864	15.509581	-0.009963	1.547686
52.301457	659.402470	15.514586	-0.009953	1.545687
52.360546	657.364409	15.519591	-0.009964	1.543624
52.195826	655.434183	15.524595	-0.009934	1.541590
52.121877	653.489283	15.529600	-0.009921	1.539571
52.226587	651.429734	15.534605	-0.009940	1.537492
52.098424	649.496339	15.539610	-0.009917	1.535460
52.163908	647.447967	15.544615	-0.009928	1.533374
52.041697	645.513340	15.549619	-0.009906	1.531338
52.041551	643.515925	15.554624	-0.009906	1.529276
52.100413	641.484582	15.559629	-0.009917	1.527197
51.915870	639.564465	15.564634	-0.009884	1.525145
51.931446	637.539594	15.569639	-0.009887	1.523052
51.913476	635.574480	15.574643	-0.009883	1.521006
51.901394	633.587372	15.579648	-0.009881	1.518937
51.819426	631.604044	15.584653	-0.009867	1.516845
51.797659	629.619520	15.589658	-0.009863	1.514769
51.827161	627.587264	15.594663	-0.009868	1.512659
51.865147	625.622575	15.599667	-0.009875	1.510619
51.927907	623.583152	15.604672	-0.009886	1.508507
51.852084	621.632572	15.609677	-0.009873	1.506436
51.731754	619.674010	15.614682	-0.009851	1.504339
51.734237	617.683646	15.619687	-0.009851	1.502248
51.829883	615.695004	15.624691	-0.009869	1.500190
51.873659	613.673102	15.629696	-0.009877	1.498075
51.570518	611.777745	15.634701	-0.009822	1.495967
51.658859	609.741593	15.639706	-0.009838	1.493847
51.616806	607.759217	15.644711	-0.009830	1.491734
51.586422	605.788242	15.649715	-0.009825	1.489635
51.697523	603.739660	15.654720	-0.009845	1.487501
51.652414	601.798067	15.659725	-0.009837	1.485422
51.452414	599.843526	15.664730	-0.009801	1.483270
51.617874	597.818977	15.669735	-0.009831	1.481172
51.553812	595.830166	15.674739	-0.009819	1.479026
51.607470	593.829452	15.679744	-0.009829	1.476907
51.427866	591.895975	15.684749	-0.009796	1.474773
51.508343	589.863239	15.689754	-0.009811	1.472623
51.419548	587.919841	15.694759	-0.009795	1.470505
51.422462	585.913612	15.699763	-0.009796	1.468349
51.454400	583.924850	15.704768	-0.009801	1.466220
51.387595	581.940231	15.709773	-0.009789	1.464056
51.474479	579.931881	15.714778	-0.009805	1.461919
51.288595	578.020121	15.719783	-0.009771	1.459784
51.197796	576.032146	15.724787	-0.009755	1.457598
51.236969	574.039897	15.729792	-0.009762	1.455452
51.373088	571.972379	15.734797	-0.009787	1.453256
51.250589	570.048907	15.739802	-0.009765	1.451119
51.261844	568.030665	15.744807	-0.009767	1.448925
51.171671	566.073966	15.749811	-0.009751	1.446757
51.126448	564.101319	15.754816	-0.009742	1.444584
51.154607	562.097977	15.759821	-0.009748	1.442403
51.114544	560.130855	15.764826	-0.009740	1.440232
51.104863	558.133410	15.769831	-0.009739	1.438036
51.102529	556.151708	15.774835	-0.009738	1.435857
51.043530	554.158076	15.779840	-0.009728	1.433640
51.042218	552.186763	15.784845	-0.009727	1.431465
50.915683	550.220778	15.789850	-0.009705	1.429247
50.966996	548.213426	15.794855	-0.009714	1.427046
51.212149	546.153273	15.799859	-0.009758	1.424856
50.867408	544.281109	15.804864	-0.009696	1.422649
50.850476	542.319138	15.809869	-0.009693	1.420463
50.796678	540.315668	15.814874	-0.009683	1.418213
50.914746	538.304534	15.819879	-0.009705	1.416015
50.771608	536.343296	15.824883	-0.009679	1.413772
50.903353	534.321972	15.829888	-0.009703	1.411561
50.667981	532.390994	15.834893	-0.009660	1.409309
50.712663	530.378902	15.839898	-0.009668	1.407069
50.838115	528.350475	15.844903	-0.009691	1.404838
50.717900	526.405680	15.849907	-0.009669	1.402604
50.762165	524.404888	15.854912	-0.009677	1.400366
50.780485	522.402398	15.859917	-0.009681	1.398112
50.752533	520.439247	15.864922	-0.009676	1.395881
50.669418	518.470585	15.869927	-0.009661	1.393620
50.606505	516.518651	15.874931	-0.009649	1.391381
50.591338	514.519771	15.879936	-0.009647	1.389104
50.483390	512.578860	15.884941	-0.009627	1.386854
50.516951	510.565847	15.889946	-0.009633	1.384572
50.460730	508.591015	15.894951	-0.009623	1.382295
50.524594	506.586007	15.899955	-0.009635	1.380027
50.366818	504.643685	15.904960	-0.009606	1.377740
50.459966	502.616365	15.909965	-0.009623	1.375450
50.400311	500.639307	15.914970	-0.009612	1.373155
50.400753	498.667903	15.919975	-0.009612	1.370885
50.392549	496.656726	15.924979	-0.009611	1.368563
50.309565	494.724894	15.929984	-0.009596	1.366298
50.195922	492.737750	15.934989	-0.009575	1.363954
50.323333	490.734742	15.939994	-0.009599	1.361683
50.302366	488.742517	15.944999	-0.009595	1.359361
50.253772	486.779066	15.950003	-0.009586	1.357059
50.248484	484.780003	15.955008	-0.009585	1.354728
50.376795	482.757055	15.960013	-0.009608	1.352418
50.109598	480.868578	15.965018	-0.009560	1.350104
50.086704	478.884983	15.970023	-0.009556	1.347772
50.091486	476.897396	15.975027	-0.009557	1.345442
49.996888	474.935827	15.980032	-0.009540	1.343099
50.002685	472.957570	15.985037	-0.009541	1.340773
50.014668	470.954447	15.990042	-0.009543	1.338416
50.160130	468.922011	15.995047	-0.009569	1.336073
50.241193	466.907083	16.000051	-0.009584	1.333722
50.218947	464.950538	16.005056	-0.009580	1.331393
50.196271	462.963630	16.010061	-0.009576	1.329025
50.028064	461.044985	16.015066	-0.009546	1.326674
50.000323	459.063423	16.020071	-0.009541	1.324301
50.092317	457.064692	16.025075	-0.009557	1.321952
50.062078	455.073930	16.030080	-0.009552	1.319559
50.090961	453.092386	16.035085	-0.009557	1.317197
50.050059	451.118056	16.040090	-0.009550	1.314810
50.056620	449.135152	16.045095	-0.009551	1.312428
49.921250	447.200670	16.050099	-0.009527	1.310042
49.940488	445.211910	16.055104	-0.009530	1.307650
49.865953	443.248477	16.060109	-0.009517	1.305245
49.881861	441.250484	16.065114	-0.009520	1.302831
49.796164	439.289664	16.070119	-0.009504	1.300416
49.916509	437.260100	16.075123	-0.009526	1.297998
49.833678	435.289438	16.080128	-0.009511	1.295563
49.735127	433.339344	16.085133	-0.009493	1.293142
49.729959	431.357991	16.090138	-0.009492	1.290718
49.712955	429.377407	16.095143	-0.009489	1.288284
49.571990	427.445491	16.100147	-0.009464	1.285854
49.563569	425.451275	16.105152	-0.009462	1.283398
49.727827	423.427706	16.110157	-0.009492	1.280974
49.579992	421.483887	16.115162	-0.009465	1.278513
49.504740	419.525330	16.120167	-0.009452	1.276059
49.503100	417.533014	16.125171	-0.009452	1.273589
49.542378	415.545942	16.130176	-0.009459	1.271139
49.365041	413.614168	16.135181	-0.009427	1.268660
49.360157	411.631905	16.140186	-0.009426	1.266188
49.480355	409.596276	16.145191	-0.009448	1.263697
49.445056	407.660600	16.150195	-0.009441	1.261260
49.427140	405.666084	16.155200	-0.009438	1.258752
49.455371	403.681098	16.160205	-0.009443	1.256270
49.534870	401.662628	16.165210	-0.009458	1.253764
49.351355	399.763500	16.170215	-0.009424	1.251289
49.286909	397.788300	16.175219	-0.009413	1.248765
49.396259	395.775074	16.180224	-0.009433	1.246264
49.234385	393.836501	16.185229	-0.009403	1.243734
49.230962	391.875158	16.190234	-0.009403	1.241238
49.204359	389.886417	16.195239	-0.009398	1.238693
49.244420	387.899015	16.200243	-0.009405	1.236174
49.353193	385.878842	16.205248	-0.009425	1.233637
49.263959	383.935437	16.210253	-0.009409	1.231107
49.290881	381.948486	16.215258	-0.009414	1.228567
49.259522	379.984215	16.220263	-0.009408	1.226025
49.278144	377.998429	16.225267	-0.009412	1.223471
49.152048	376.076312	16.230272	-0.009389	1.220931
49.217581	374.065147	16.235277	-0.009401	1.218356
48.960842	372.167219	16.240282	-0.009354	1.215778
48.872711	370.200782	16.245287	-0.009338	1.213181
49.080003	368.149046	16.250291	-0.009376	1.210599
49.058218	366.188814	16.255296	-0.009372	1.208029
48.878580	364.254755	16.260301	-0.009340	1.205416
48.938585	362.263171	16.265306	-0.009350	1.202830
48.801541	360.330393	16.270311	-0.009326	1.200227
48.949057	358.294162	16.275315	-0.009352	1.197611
48.763280	356.370033	16.280320	-0.009319	1.194986
48.859248	354.373434	16.285325	-0.009336	1.192388
48.801530	352.396245	16.290330	-0.009326	1.189739
48.793354	350.439606	16.295335	-0.009324	1.187134
48.665632	348.487925	16.300339	-0.009301	1.184476
48.681866	346.541617	16.305344	-0.009304	1.181885
48.706901	344.536122	16.310349	-0.009309	1.179213
48.629276	342.572833	16.315354	-0.009295	1.176544
48.602960	340.605225	16.320359	-0.009290	1.173887
48.608380	338.624169	16.325363	-0.009291	1.171221
48.708412	336.622969	16.330368	-0.009309	1.168565
48.634458	334.660291	16.335373	-0.009296	1.165874
48.637351	332.698854	16.340378	-0.009297	1.163215
48.633652	330.722720	16.345383	-0.009296	1.160526
48.572177	328.770479	16.350387	-0.009285	1.157837
48.537062	326.787497	16.355392	-0.009279	1.155112
48.492706	324.851567	16.360397	-0.009271	1.152440
48.450211	322.876012	16.365402	-0.009263	1.149709
48.381367	320.936978	16.370407	-0.009251	1.147009
48.450049	318.932636	16.375411	-0.009263	1.144278
48.424270	316.984274	16.380416	-0.009258	1.141573
48.389732	315.007504	16.385421	-0.009252	1.138817
48.314096	313.046955	16.390426	-0.009239	1.136058
48.210486	311.107143	16.395431	-0.009220	1.133308
48.284191	309.098496	16.400435	-0.009233	1.130540
48.228342	307.151166	16.405440	-0.009223	1.127789
48.169976	305.186659	16.410445	-0.009213	1.125006
48.167758	303.232200	16.415450	-0.009212	1.122257
47.983637	301.304784	16.420455	-0.009179	1.119451
48.079936	299.292366	16.425459	-0.009196	1.116654
47.867685	297.385836	16.430464	-0.009158	1.113850
48.041797	295.345830	16.435469	-0.009190	1.111038
47.910570	293.426090	16.440474	-0.009166	1.108241
47.817954	291.471397	16.445479	-0.009149	1.105406
47.948414	289.483904	16.450483	-0.009173	1.102626
47.795627	287.550452	16.455488	-0.009145	1.099777
47.974829	285.506925	16.460493	-0.009178	1.096927
47.865048	283.574101	16.465498	-0.009158	1.094085
47.638260	281.669668	16.470503	-0.009117	1.091218
47.617886	279.708297	16.475507	-0.009113	1.088365
47.584424	277.739014	16.480512	-0.009107	1.085486
47.807935	275.708063	16.485517	-0.009148	1.082639
47.725404	273.760190	16.490522	-0.009133	1.079751
47.728745	271.792658	16.495527	-0.009133	1.076870
47.618752	269.866211	16.500531	-0.009114	1.073985
47.596212	267.898039	16.505536	-0.009110	1.071074
47.626774	265.926262	16.510541	-0.009115	1.068178
47.518778	263.985657	16.515546	-0.009096	1.065249
47.413748	262.067625	16.520551	-0.009077	1.062346
47.392421	260.094946	16.525555	-0.009073	1.059398
47.344226	258.128404	16.530560	-0.009064	1.056436
47.293689	256.184620	16.535565	-0.009055	1.053500
47.230066	254.222130	16.540570	-0.009044	1.050520
47.151097	252.284188	16.545575	-0.009029	1.047560
47.237866	250.274407	16.550579	-0.009045	1.044570
47.114644	248.353107	16.555584	-0.009023	1.041596
47.075836	246.394903	16.560589	-0.009016	1.038601
47.040953	244.432425	16.565594	-0.009010	1.035594
47.111055	242.456557	16.570599	-0.009022	1.032612
47.042255	240.504718	16.575603	-0.009010	1.029585
46.918575	238.575211	16.580608	-0.008988	1.026554
46.890049	236.633324	16.585613	-0.008983	1.023546
46.901813	234.651346	16.590618	-0.008985	1.020489
46.855554	232.701071	16.595623	-0.008976	1.017441
46.981933	230.696042	16.600627	-0.008999	1.014391
46.885340	228.765989	16.605632	-0.008982	1.011328
46.778845	226.849596	16.610637	-0.008963	1.008273
46.756912	224.887011	16.615642	-0.008959	1.005181
46.728780	222.934063	16.620647	-0.008954	1.002092
46.830788	220.942514	16.625651	-0.008972	0.999003
46.699027	219.020029	16.630656	-0.008948	0.995886
46.657011	217.088018	16.635661	-0.008941	0.992793
46.623635	215.129344	16.640666	-0.008935	0.989653
46.708508	213.141336	16.645671	-0.008950	0.986522
46.782007	211.160898	16.650675	-0.008963	0.983386
46.652134	209.240469	16.655680	-0.008940	0.980224
46.683298	207.266517	16.660685	-0.008946	0.977055
46.580593	205.353288	16.665690	-0.008927	0.973898
46.486987	203.422691	16.670695	-0.008910	0.970709
46.465681	201.469608	16.675699	-0.008907	0.967513
46.395175	199.541224	16.680704	-0.008894	0.964319
46.447912	197.570838	16.685709	-0.008903	0.961116
46.256689	195.668851	16.690714	-0.008869	0.957875
46.551530	193.620516	16.695719	-0.008922	0.954660
46.520926	191.679439	16.700723	-0.008917	0.951425
46.431469	189.772049	16.705728	-0.008901	0.948201
46.359162	187.850348	16.710733	-0.008888	0.944952
46.184059	185.957957	16.715738	-0.008856	0.941680
46.112400	184.022664	16.720743	-0.008843	0.938386
46.195483	182.039369	16.725747	-0.008858	0.935090
46.135768	180.096684	16.730752	-0.008847	0.931767
46.151021	178.147434	16.735757	-0.008850	0.928465
46.242453	176.174740	16.740762	-0.008867	0.925157
46.111256	174.272315	16.745767	-0.008843	0.921825
46.256284	172.273588	16.750771	-0.008869	0.918480
45.914430	170.446010	16.755776	-0.008807	0.915125
46.053275	168.444697	16.760781	-0.008833	0.911748
45.909253	166.554769	16.765786	-0.008807	0.908380
45.920581	164.602160	16.770791	-0.008809	0.904985
45.757621	162.711439	16.775795	-0.008779	0.901579
45.727826	160.765990	16.780800	-0.008774	0.898145
45.765931	158.805812	16.785805	-0.008781	0.894714
45.603013	156.904755	16.790810	-0.008751	0.891250
45.623590	154.950617	16.795815	-0.008755	0.887792
45.573499	153.027183	16.800819	-0.008746	0.884332
45.675037	151.044260	16.805824	-0.008765	0.880846
45.579125	149.129782	16.810829	-0.008747	0.877345
45.501968	147.225334	16.815834	-0.008733	0.873861
45.417605	145.305985	16.820839	-0.008718	0.870330
45.310684	143.403894	16.825843	-0.008699	0.866803
45.195703	141.506914	16.830848	-0.008678	0.863265
45.150967	139.576079	16.835853	-0.008670	0.859696
45.161484	137.617968	16.840858	-0.008672	0.856097
45.164312	135.681728	16.845863	-0.008673	0.852518
45.109484	133.764275	16.850867	-0.008663	0.848922
45.075249	131.838599	16.855872	-0.008657	0.845308
45.228463	129.847200	16.860877	-0.008684	0.841678
45.145217	127.946790	16.865882	-0.008669	0.838049
45.184151	126.002919	16.870887	-0.008676	0.834402
45.146338	124.087898	16.875891	-0.008670	0.830743
45.107911	122.171967	16.880896	-0.008663	0.827066
45.181408	120.236974	16.885901	-0.008676	0.823411
44.853244	118.413969	16.890906	-0.008617	0.819685
44.843490	116.477500	16.895911	-0.008615	0.815938
44.866644	114.537818	16.900915	-0.008619	0.812189
44.840546	112.616212	16.905920	-0.008615	0.808425
44.958628	110.659704	16.910925	-0.008636	0.804673
44.775969	108.801151	16.915930	-0.008603	0.800890
44.727864	106.887114	16.920935	-0.008594	0.797072
44.845364	104.928637	16.925939	-0.008616	0.793263
44.656739	103.076825	16.930944	-0.008582	0.789434
44.601495	101.176950	16.935949	-0.008572	0.785584
44.527348	99.285697	16.940954	-0.008558	0.781719
44.592490	97.338660	16.945959	-0.008570	0.777820
44.518987	95.450277	16.950963	-0.008557	0.773923
44.372160	93.583934	16.955968	-0.008530	0.769998
44.401610	91.653367	16.960973	-0.008536	0.766048
44.373151	89.756025	16.965978	-0.008531	0.762105
44.170966	87.903801	16.970983	-0.008494	0.758108
44.326654	85.944837	16.975987	-0.008522	0.754128
44.210420	84.074489	16.980992	-0.008501	0.750114
44.161537	82.184719	16.985997	-0.008493	0.746087
44.102353	80.289876	16.991002	-0.008482	0.742020
44.040780	78.402262	16.996007	-0.008471	0.737944
44.028301	76.498146	17.001011	-0.008469	0.733847
43.917809	74.633913	17.006016	-0.008449	0.729738
43.920747	72.734137	17.011021	-0.008449	0.725616
43.660817	70.918636	17.016026	-0.008402	0.721453
43.729158	68.985251	17.021031	-0.008415	0.717259
43.850711	67.048175	17.026035	-0.008437	0.713074
43.646539	65.223692	17.031040	-0.008400	0.708861
43.652942	63.339411	17.036045	-0.008401	0.704654
43.421822	61.518558	17.041050	-0.008359	0.700377
43.577877	59.569008	17.046055	-0.008388	0.696089
43.540139	57.688152	17.051059	-0.008381	0.691777
43.396490	55.859008	17.056064	-0.008355	0.687471
43.371593	53.978112	17.061069	-0.008350	0.683115
43.339520	52.103567	17.066074	-0.008345	0.678740
43.130177	50.290363	17.071079	-0.008307	0.674334
43.126468	48.413628	17.076083	-0.008306	0.669919
43.019135	46.562545	17.081088	-0.008287	0.665450
42.973062	44.695764	17.086093	-0.008279	0.660964
42.952139	42.816807	17.091098	-0.008275	0.656440
42.842393	40.981289	17.096103	-0.008255	0.651914
42.789988	39.120252	17.101107	-0.008246	0.647343
42.830750	37.242206	17.106112	-0.008253	0.642779
42.781550	35.389750	17.111117	-0.008244	0.638166
42.564953	33.602848	17.116122	-0.008205	0.633537
42.432050	31.783171	17.121127	-0.008181	0.628866
42.283029	29.982379	17.126131	-0.008154	0.624193
42.359528	28.086275	17.131136	-0.008168	0.619443
42.161073	26.316683	17.136141	-0.008132	0.614734
42.138569	24.583540	17.141146	-0.008128	0.610243
